Header:
MFRSR SPECTRAL RESPONSE TEST:

Instrument Data:
Serial_number	Vis492
Instrument_rev	Yes_Mk1
Owner	DOE-ARM

Test_Conditions_Data:
Testing_agency	DOE-ARM_SRMS
Test_System_rev	D
Test_date	6/5/2015
Test_day	156	[Day_of_year]
Test_conductor	Craig Webb
Source_Type	175 watt Xenon_ARC
Monochromator_slit	85	microns
Wavelength_registration_line	361.1652	[nm]
Wavelength_registration_position	431837	[steps]

Comment:	From Japan// Robert Reynolds/PNL

Channel	Wavelength	Signal	900	390	-3.518972E-05	1.464928E-06
900	390.25	-3.250169E-05	1.014279E-06
900	390.5	-3.418617E-05	1.211227E-06
900	390.75	-3.192822E-05	1.571804E-06
900	391	-3.131893E-05	1.870038E-06
900	391.25	-3.160565E-05	8.800142E-07
900	391.5	-3.332597E-05	1.59899E-06
900	391.75	-3.286003E-05	1.264324E-06
900	392	-3.561971E-05	1.18164E-06
900	392.25	-3.289584E-05	1.054295E-06
900	392.5	-3.594224E-05	1.533608E-06
900	392.75	-3.329007E-05	1.511108E-06
900	393	-3.246573E-05	1.185618E-06
900	393.25	-3.225067E-05	1.409156E-06
900	393.5	-3.37201E-05	1.054496E-06
900	393.75	-3.189225E-05	1.563285E-06
900	394	-3.264489E-05	1.597289E-06
900	394.25	-3.314663E-05	1.356306E-06
900	394.5	-3.285991E-05	1.551325E-06
900	394.75	-3.210725E-05	1.247043E-06
900	395	-3.199972E-05	1.488071E-06
900	395.25	-3.199971E-05	1.138013E-06
900	395.5	-3.303906E-05	1.079904E-06
900	395.75	-2.970593E-05	1.130525E-06
900	396	-2.898912E-05	1.14825E-06
900	396.25	-3.124704E-05	1.18868E-06
900	396.5	-3.343326E-05	2.0501E-06
900	396.75	-3.440093E-05	1.759044E-06
900	397	-2.870235E-05	1.462235E-06
900	397.25	-2.977755E-05	1.112453E-06
900	397.5	-3.465178E-05	1.01652E-06
900	397.75	-3.192793E-05	1.453472E-06
900	398	-3.465177E-05	9.169404E-07
900	398.25	-3.192791E-05	1.267078E-06
900	398.5	-3.253718E-05	1.533599E-06
900	398.75	-3.418581E-05	1.354932E-06
900	399	-3.321813E-05	1.282249E-06
900	399.25	-3.088852E-05	1.339091E-06
900	399.5	-3.318227E-05	1.76774E-06
900	399.75	-3.078098E-05	1.422303E-06
900	400	-3.05301E-05	1.904244E-06
900	400.25	-3.067345E-05	1.63621E-06
900	400.5	-3.33256E-05	1.358769E-06
900	400.75	-3.002832E-05	1.351819E-06
900	401	-3.149775E-05	1.100323E-06
900	401.25	-3.153358E-05	8.820304E-07
900	401.5	-3.113933E-05	1.352293E-06
900	401.75	-3.128269E-05	1.085895E-06
900	402	-3.045837E-05	1.054894E-06
900	402.25	-2.794958E-05	1.304208E-06
900	402.5	-3.117515E-05	1.040591E-06
900	402.75	-3.25729E-05	1.707531E-06
900	403	-2.78062E-05	1.157651E-06
900	403.25	-3.02433E-05	1.643908E-06
900	403.5	-3.074504E-05	1.058877E-06
900	403.75	-3.364807E-05	1.535593E-06
900	404	-2.970569E-05	1.287521E-06
900	404.25	-3.01716E-05	1.56733E-06
900	404.5	-3.167686E-05	1.388584E-06
900	404.75	-3.192772E-05	1.267072E-06
900	405	-3.002821E-05	1.35682E-06
900	405.25	-2.938309E-05	1.169608E-06
900	405.5	-3.13901E-05	9.572196E-07
900	405.75	-3.060163E-05	8.695611E-07
900	406	-3.271616E-05	1.045719E-06
900	406.25	-2.988482E-05	1.288294E-06
900	406.5	-3.042242E-05	1.681246E-06
900	406.75	-3.217856E-05	1.638033E-06
900	407	-2.784194E-05	1.242215E-06
900	407.25	-3.128254E-05	1.346735E-06
900	407.5	-2.931135E-05	1.486857E-06
900	407.75	-3.196349E-05	1.165388E-06
900	408	-3.282364E-05	1.255187E-06
900	408.25	-3.070909E-05	9.712793E-07
900	408.5	-3.192763E-05	1.263855E-06
900	408.75	-2.927548E-05	1.135616E-06
900	409	-2.9383E-05	9.19032E-07
900	409.25	-3.045818E-05	1.701285E-06
900	409.5	-3.009978E-05	1.428002E-06
900	409.75	-3.131832E-05	1.556633E-06
900	410	-2.956217E-05	1.037014E-06
900	410.25	-2.988472E-05	1.224624E-06
900	410.5	-2.959799E-05	1.359757E-06
900	410.75	-3.196341E-05	1.054211E-06
900	411	-2.974134E-05	1.344239E-06
900	411.25	-3.117492E-05	1.310477E-06
900	411.5	-2.984885E-05	1.329882E-06
900	411.75	-3.092403E-05	1.274031E-06
900	412	-2.96338E-05	1.206778E-06
900	412.25	-3.038643E-05	9.87091E-07
900	412.5	-3.156912E-05	2.087023E-06
900	412.75	-2.949042E-05	1.000161E-06
900	413	-2.966961E-05	1.53349E-06
900	413.25	-2.712499E-05	1.492265E-06
900	413.5	-2.888113E-05	1.648015E-06
900	413.75	-2.773426E-05	1.853099E-06
900	414	-2.916783E-05	1.397488E-06
900	414.25	-3.181995E-05	1.038042E-06
900	414.5	-2.959788E-05	1.395188E-06
900	414.75	-3.185577E-05	1.256601E-06
900	415	-2.615729E-05	1.379293E-06
900	415.25	-3.260839E-05	2.102417E-06
900	415.5	-3.03505E-05	1.09752E-06
900	415.75	-2.90961E-05	1.1051E-06
900	416	-2.798507E-05	1.073392E-06
900	416.25	-2.877354E-05	1.245935E-06
900	416.5	-2.923945E-05	1.34572E-06
900	416.75	-3.009958E-05	1.677707E-06
900	417	-3.056549E-05	1.458109E-06
900	417.25	-3.042213E-05	2.044423E-06
900	417.5	-2.759081E-05	1.463678E-06
900	417.75	-3.092387E-05	1.318992E-06
900	418	-3.074467E-05	1.947352E-06
900	418.25	-3.024291E-05	9.482232E-07
900	418.5	-2.766246E-05	1.3084E-06
900	418.75	-2.490282E-05	1.39457E-06
900	419	-2.73399E-05	1.631384E-06
900	419.25	-3.085215E-05	1.473685E-06
900	419.5	-2.59063E-05	1.551985E-06
900	419.75	-2.694564E-05	1.6035E-06
900	420	-2.956191E-05	1.212964E-06
900	420.25	-2.863009E-05	1.123223E-06
900	420.5	-2.880928E-05	1.173555E-06
900	420.75	-3.085211E-05	1.217778E-06
900	421	-2.690978E-05	1.263844E-06
900	421.25	-2.959772E-05	1.152509E-06
900	421.5	-2.995611E-05	1.128419E-06
900	421.75	-2.719648E-05	1.389338E-06
900	422	-2.726814E-05	1.70755E-06
900	422.25	-2.579873E-05	9.630804E-07
900	422.5	-2.597792E-05	1.317852E-06
900	422.75	-2.816412E-05	1.186614E-06
900	423	-3.063702E-05	1.056434E-06
900	423.25	-2.963352E-05	1.749737E-06
900	423.5	-2.945432E-05	5.619914E-07
900	423.75	-2.812826E-05	1.477356E-06
900	424	-2.823576E-05	1.323362E-06
900	424.25	-2.748313E-05	1.482274E-06
900	424.5	-2.802073E-05	1.191415E-06
900	424.75	-2.626459E-05	1.945767E-06
900	425	-2.812823E-05	1.908255E-06
900	425.25	-2.923925E-05	8.345424E-07
900	425.5	-2.812821E-05	1.674377E-06
900	425.75	-2.852245E-05	9.672925E-07
900	426	-2.744726E-05	1.78718E-06
900	426.25	-2.988432E-05	7.216474E-07
900	426.5	-2.945425E-05	7.053454E-07
900	426.75	-2.755476E-05	1.306865E-06
900	427	-2.651542E-05	1.373631E-06
900	427.25	-2.58703E-05	1.661111E-06
900	427.5	-2.680212E-05	1.724138E-06
900	427.75	-2.884496E-05	1.255455E-06
900	428	-2.644372E-05	1.428184E-06
900	428.25	-2.640787E-05	1.495069E-06
900	428.5	-2.508183E-05	1.310354E-06
900	428.75	-2.576276E-05	6.382113E-07
900	429	-2.780559E-05	9.037523E-07
900	429.25	-2.282394E-05	1.574345E-06
900	429.5	-2.554772E-05	1.27452E-06
900	429.75	-3.088775E-05	1.888515E-06
900	430	-2.533267E-05	1.340821E-06
900	430.25	-2.651537E-05	1.493731E-06
900	430.5	-2.633617E-05	8.305115E-07
900	430.75	-3.017095E-05	1.294408E-06
900	431	-2.669455E-05	1.516394E-06
900	431.25	-2.612112E-05	1.565024E-06
900	431.5	-2.880905E-05	1.982815E-06
900	431.75	-2.694542E-05	9.376213E-07
900	432	-3.020678E-05	1.196848E-06
900	432.25	-2.805643E-05	1.676885E-06
900	432.5	-2.952583E-05	1.316599E-06
900	432.75	-2.622863E-05	1.051894E-06
900	433	-2.497425E-05	1.125754E-06
900	433.25	-2.644366E-05	1.331903E-06
900	433.5	-2.698124E-05	1.186669E-06
900	433.75	-2.619279E-05	1.26361E-06
900	434	-2.38274E-05	1.293029E-06
900	434.25	-2.687372E-05	1.072052E-06
900	434.5	-2.762634E-05	1.450786E-06
900	434.75	-2.558351E-05	1.319631E-06
900	435	-2.604941E-05	9.263655E-07
900	480	-2.171286E-05	1.165615E-06
900	480.25	-1.949084E-05	1.219351E-06
900	480.5	-1.86307E-05	1.114733E-06
900	480.75	-1.92758E-05	1.481015E-06
900	481	-1.519013E-05	1.704067E-06
900	481.25	-1.967003E-05	8.729859E-07
900	481.5	-1.812894E-05	1.495972E-06
900	481.75	-1.594275E-05	1.224082E-06
900	482	-2.049433E-05	1.723843E-06
900	482.25	-1.848733E-05	1.574704E-06
900	482.5	-2.002842E-05	1.062826E-06
900	482.75	-1.895324E-05	8.236944E-07
900	483	-2.053016E-05	1.868454E-06
900	483.25	-1.931163E-05	1.18432E-06
900	483.5	-1.863068E-05	1.482266E-06
900	483.75	-1.934746E-05	1.337354E-06
900	484	-1.59069E-05	1.245693E-06
900	484.25	-1.93833E-05	1.344698E-06
900	484.5	-1.923994E-05	8.658445E-07
900	484.75	-2.235795E-05	2.009515E-06
900	485	-2.210706E-05	1.115436E-06
900	485.25	-2.106773E-05	2.207333E-06
900	485.5	-1.723295E-05	1.781853E-06
900	485.75	-2.160531E-05	1.098936E-06
900	486	-1.741214E-05	1.497687E-06
900	486.25	-2.199954E-05	1.652361E-06
900	486.5	-1.769885E-05	1.547874E-06
900	486.75	-2.164114E-05	8.795807E-07
900	487	-1.855898E-05	1.199346E-06
900	487.25	-2.146194E-05	1.365914E-06
900	487.5	-2.278798E-05	1.028151E-06
900	487.75	-1.923991E-05	1.359368E-06
900	488	-1.99567E-05	1.491048E-06
900	488.25	-2.293133E-05	1.519397E-06
900	488.5	-1.816473E-05	1.63128E-06
900	488.75	-2.017172E-05	1.709958E-06
900	489	-1.945494E-05	1.570163E-06
900	489.25	-2.078098E-05	1.591469E-06
900	489.5	-1.9885E-05	1.442149E-06
900	489.75	-1.916822E-05	1.446348E-06
900	490	-1.902486E-05	9.428545E-07
900	490.25	-2.257292E-05	1.086659E-06
900	490.5	-2.038674E-05	1.217708E-06
900	490.75	-1.938325E-05	1.735555E-06
900	491	-2.042257E-05	1.174333E-06
900	491.25	-2.042257E-05	1.428526E-06
900	491.5	-1.87023E-05	1.832821E-06
900	491.75	-1.823638E-05	9.634418E-07
900	492	-1.866645E-05	1.298255E-06
900	492.25	-1.275301E-05	1.020906E-06
900	492.5	-1.708953E-05	1.362774E-06
900	492.75	-1.65161E-05	1.259986E-06
900	493	-1.719704E-05	1.522163E-06
900	493.25	-1.640858E-05	1.291255E-06
900	493.5	-1.730456E-05	1.207349E-06
900	493.75	-1.934738E-05	1.921469E-06
900	494	-1.798549E-05	1.311761E-06
900	494.25	-2.070925E-05	1.760941E-06
900	494.5	-1.741206E-05	1.459166E-06
900	494.75	-1.655193E-05	9.712602E-07
900	495	-1.762709E-05	1.584635E-06
900	495.25	-1.698199E-05	1.405816E-06
900	495.5	-1.966991E-05	1.320489E-06
900	495.75	-2.504576E-05	1.52558E-06
900	496	-2.103179E-05	9.445918E-07
900	496.25	-2.067339E-05	1.252201E-06
900	496.5	-1.934734E-05	1.573926E-06
900	496.75	-2.092427E-05	1.601922E-06
900	497	-2.020748E-05	1.247977E-06
900	497.25	-1.992077E-05	1.308545E-06
900	497.5	-2.053002E-05	1.358366E-06
900	497.75	-2.153351E-05	1.137664E-06
900	498	-2.156935E-05	1.406321E-06
900	498.25	-2.142599E-05	1.486441E-06
900	498.5	-1.934733E-05	1.352469E-06
900	498.75	-1.891726E-05	1.730444E-06
900	499	-1.863055E-05	1.508551E-06
900	499.25	-1.827216E-05	1.043031E-06
900	499.5	-2.128262E-05	1.536345E-06
900	499.75	-2.339711E-05	9.731662E-07
900	500	-1.845135E-05	1.752692E-06
900	500.25	-1.97057E-05	1.340651E-06
900	500.5	-2.096006E-05	1.326901E-06
900	500.75	-1.816462E-05	1.643693E-06
900	501	-2.01716E-05	1.408196E-06
900	501.25	-2.121092E-05	9.8316E-07
900	501.5	-2.067333E-05	1.52197E-06
900	501.75	-1.966985E-05	1.578631E-06
900	502	-1.938314E-05	1.22989E-06
900	502.25	-1.9634E-05	1.468424E-06
900	502.5	-1.945481E-05	1.545789E-06
900	502.75	-1.906058E-05	1.374344E-06
900	503	-1.676688E-05	1.267322E-06
900	503.25	-1.784205E-05	1.294507E-06
900	503.5	-1.780621E-05	1.501531E-06
900	503.75	-1.895305E-05	1.17159E-06
900	504	-2.020741E-05	1.521172E-06
900	504.25	-2.035077E-05	1.830748E-06
900	504.5	-2.096002E-05	1.077686E-06
900	504.75	-1.741198E-05	1.109785E-06
900	505	-2.185599E-05	7.980804E-07
900	505.25	-1.977733E-05	1.168174E-06
900	505.5	-1.751949E-05	1.250144E-06
900	505.75	-1.863049E-05	1.644428E-06
900	506	-1.870217E-05	1.36371E-06
900	506.25	-1.923974E-05	1.435047E-06
900	506.5	-2.060162E-05	1.239366E-06
900	506.75	-1.909639E-05	1.361143E-06
900	507	-1.85588E-05	1.123459E-06
900	507.25	-1.730444E-05	1.486197E-06
900	507.5	-2.081664E-05	1.454506E-06
900	507.75	-1.931141E-05	1.25652E-06
900	508	-2.020738E-05	1.3022E-06
900	508.25	-1.633679E-05	1.001067E-06
900	508.5	-1.992067E-05	1.538986E-06
900	508.75	-1.977732E-05	1.162356E-06
900	509	-1.952644E-05	1.510438E-06
900	509.25	-1.880966E-05	1.220452E-06
900	509.5	-1.941893E-05	1.48754E-06
900	509.75	-1.974147E-05	1.167379E-06
900	510	-1.941892E-05	1.353941E-06
900	510.25	-2.009986E-05	1.036301E-06
900	510.5	-1.794953E-05	1.492281E-06
900	510.75	-1.773449E-05	1.203614E-06
900	511	-1.956227E-05	1.284378E-06
900	511.25	-1.902469E-05	1.090847E-06
900	511.5	-1.773449E-05	1.319672E-06
900	511.75	-1.995651E-05	1.221095E-06
900	512	-1.75553E-05	1.405301E-06
900	512.25	-1.898885E-05	1.329691E-06
900	512.5	-2.045824E-05	1.560671E-06
900	512.75	-2.006401E-05	1.390292E-06
900	513	-1.816455E-05	1.003487E-06
900	513.25	-1.805704E-05	1.433703E-06
900	513.5	-1.798536E-05	1.560076E-06
900	513.75	-1.375638E-05	1.800087E-06
900	514	-1.812871E-05	1.646117E-06
900	514.25	-1.963395E-05	1.130361E-06
900	514.5	-1.841543E-05	1.300006E-06
900	514.75	-1.820039E-05	1.194688E-06
900	515	-1.902469E-05	1.300609E-06
900	515.25	-1.949059E-05	1.258732E-06
900	515.5	-1.981313E-05	1.129981E-06
900	515.75	-1.97773E-05	1.262976E-06
900	516	-1.970562E-05	1.219925E-06
900	516.25	-2.085246E-05	1.472206E-06
900	516.5	-1.805703E-05	1.18864E-06
900	516.75	-1.791368E-05	1.44298E-06
900	517	-1.687435E-05	1.369139E-06
900	517.25	-1.863045E-05	1.193432E-06
900	517.5	-1.827207E-05	1.317561E-06
900	517.75	-1.827206E-05	9.562245E-07
900	518	-1.762696E-05	1.712906E-06
900	518.25	-1.866629E-05	1.748569E-06
900	518.5	-1.644428E-05	9.76238E-07
900	518.75	-1.791367E-05	1.696076E-06
900	519	-1.895299E-05	1.48129E-06
900	519.25	-1.880964E-05	1.516659E-06
900	519.5	-1.583502E-05	1.400621E-06
900	519.75	-1.472401E-05	1.179781E-06
900	520	-1.751944E-05	1.324906E-06
900	520.25	-1.834372E-05	1.340646E-06
900	520.5	-1.787782E-05	1.411228E-06
900	520.75	-1.938305E-05	1.449492E-06
900	521	-1.784198E-05	1.122886E-06
900	521.25	-1.655179E-05	1.22442E-06
900	521.5	-2.081659E-05	1.762185E-06
900	521.75	-1.576333E-05	9.321917E-07
900	522	-1.680265E-05	1.16597E-06
900	522.25	-1.719687E-05	1.250255E-06
900	522.5	-1.5835E-05	1.326035E-06
900	522.75	-1.744775E-05	1.097627E-06
900	523	-1.820036E-05	9.621008E-07
900	523.25	-1.536909E-05	1.29577E-06
900	523.5	-1.51899E-05	1.427866E-06
900	523.75	-1.651593E-05	1.627193E-06
900	524	-1.648009E-05	1.551727E-06
900	524.25	-1.63009E-05	1.152489E-06
900	524.5	-1.859457E-05	1.100807E-06
900	524.75	-1.698182E-05	7.525193E-07
900	525	-1.837954E-05	8.549715E-07
900	590	-1.486734E-05	1.392597E-06
900	590.25	-1.436559E-05	1.426915E-06
900	590.5	-1.375634E-05	1.210056E-06
900	590.75	-1.475982E-05	1.271645E-06
900	591	-1.429391E-05	1.523136E-06
900	591.25	-1.569162E-05	1.35615E-06
900	591.5	-1.389968E-05	1.240571E-06
900	591.75	-1.411472E-05	1.728124E-06
900	592	-1.31829E-05	1.21147E-06
900	592.25	-1.117594E-05	1.457638E-06
900	592.5	-1.526155E-05	1.700611E-06
900	592.75	-1.626504E-05	1.021806E-06
900	593	-1.443726E-05	1.311152E-06
900	593.25	-1.475981E-05	1.506838E-06
900	593.5	-1.329042E-05	1.239995E-06
900	593.75	-1.583496E-05	1.248083E-06
900	594	-1.518986E-05	1.111835E-06
900	594.25	-1.228693E-05	1.420599E-06
900	594.5	-1.346961E-05	1.269454E-06
900	594.75	-1.332624E-05	1.165784E-06
900	595	-1.246612E-05	1.330546E-06
900	595.25	-1.579912E-05	1.258388E-06
900	595.5	-1.540489E-05	1.401432E-06
900	595.75	-1.475979E-05	1.230463E-06
900	596	-1.561992E-05	1.392237E-06
900	596.25	-1.44014E-05	1.457539E-06
900	596.5	-1.468811E-05	9.674977E-07
900	596.75	-1.343375E-05	1.542407E-06
900	597	-1.526152E-05	1.481622E-06
900	597.25	-1.42222E-05	1.016483E-06
900	597.5	-1.418637E-05	1.436681E-06
900	597.75	-1.372046E-05	1.551264E-06
900	598	-1.759103E-05	1.597538E-06
900	598.25	-1.346958E-05	1.155393E-06
900	598.5	-1.321872E-05	1.211822E-06
900	598.75	-1.5154E-05	1.467735E-06
900	599	-1.400716E-05	1.050793E-06
900	599.25	-1.232275E-05	1.147833E-06
900	599.5	-1.264529E-05	1.338991E-06
900	599.75	-1.766271E-05	1.324363E-06
900	600	-1.458058E-05	1.057697E-06
900	600.25	-1.906042E-05	1.820732E-06
900	600.5	-1.321871E-05	1.140349E-06
900	600.75	-1.429387E-05	1.220739E-06
900	601	-1.558407E-05	1.712108E-06
900	601.25	-1.604997E-05	1.244531E-06
900	601.5	-1.493897E-05	1.154837E-06
900	601.75	-1.716097E-05	1.402093E-06
900	602	-1.508233E-05	1.490649E-06
900	602.25	-1.766271E-05	1.877383E-06
900	602.5	-1.24661E-05	1.446728E-06
900	602.75	-1.372045E-05	1.454745E-06
900	603	-1.572742E-05	9.062616E-07
900	603.25	-1.432972E-05	1.264045E-06
900	603.5	-1.547655E-05	1.44248E-06
900	603.75	-1.511816E-05	1.169023E-06
900	604	-1.558407E-05	1.409858E-06
900	604.25	-1.522569E-05	1.141163E-06
900	604.5	-1.773439E-05	1.344097E-06
900	604.75	-1.619333E-05	1.805582E-06
900	605	-1.630084E-05	1.451357E-06
900	605.25	-1.454475E-05	1.437674E-06
900	605.5	-1.440139E-05	7.766889E-07
900	605.75	-1.673092E-05	1.531683E-06
900	606	-1.458059E-05	1.340376E-06
900	606.25	-1.389965E-05	1.507026E-06
900	606.5	-1.762688E-05	1.208992E-06
900	606.75	-1.719681E-05	1.321936E-06
900	607	-1.508233E-05	1.192531E-06
900	607.25	-1.547656E-05	1.28226E-06
900	607.5	-1.479562E-05	1.198083E-06
900	607.75	-1.501065E-05	1.131618E-06
900	608	-1.110424E-05	1.489212E-06
900	608.25	-1.235859E-05	1.133067E-06
900	608.5	-1.454475E-05	1.587367E-06
900	608.75	-1.407885E-05	8.106734E-07
900	609	-1.540488E-05	1.372102E-06
900	609.25	-1.307537E-05	1.744232E-06
900	609.5	-1.37563E-05	1.541203E-06
900	609.75	-1.472394E-05	1.086451E-06
900	610	-1.20002E-05	1.37309E-06
900	610.25	-1.536904E-05	1.576179E-06
900	610.5	-1.443724E-05	1.699349E-06
900	610.75	-1.475978E-05	9.802465E-07
900	611	-1.490314E-05	1.819596E-06
900	611.25	-1.569158E-05	1.359143E-06
900	611.5	-1.443724E-05	1.419392E-06
900	611.75	-1.601413E-05	1.189775E-06
900	612	-1.82003E-05	1.759223E-06
900	612.25	-1.232275E-05	1.38741E-06
900	612.5	-1.45089E-05	1.367726E-06
900	612.75	-1.461642E-05	1.515336E-06
900	613	-1.454475E-05	1.147087E-06
900	613.25	-1.2932E-05	1.296152E-06
900	613.5	-1.343374E-05	1.270576E-06
900	613.75	-1.128342E-05	1.12072E-06
900	614	-1.637251E-05	1.264044E-06
900	614.25	-1.554822E-05	1.285261E-06
900	614.5	-1.074584E-05	1.255492E-06
900	614.75	-1.56199E-05	1.073301E-06
900	615	-1.554822E-05	1.465642E-06
900	615.25	-1.497481E-05	1.433249E-06
900	615.5	-1.415052E-05	1.514865E-06
900	615.75	-1.099671E-05	1.394796E-06
900	616	-1.644419E-05	1.221732E-06
900	616.25	-1.483145E-05	1.096388E-06
900	616.5	-1.214355E-05	1.606002E-06
900	616.75	-1.153429E-05	1.459739E-06
900	617	-1.386379E-05	1.292679E-06
900	617.25	-1.379212E-05	1.475105E-06
900	617.5	-1.673089E-05	1.452633E-06
900	617.75	-1.260944E-05	1.3459E-06
900	618	-1.214354E-05	1.288421E-06
900	618.25	-1.318286E-05	1.375996E-06
900	618.5	-1.651586E-05	1.746152E-06
900	618.75	-1.400715E-05	1.054656E-06
900	619	-1.554821E-05	1.628634E-06
900	619.25	-1.508231E-05	1.374231E-06
900	619.5	-1.486727E-05	1.610216E-06
900	619.75	-1.597827E-05	1.354725E-06
900	620	-1.389962E-05	1.56614E-06
900	620.25	-1.357708E-05	1.252816E-06
900	620.5	-1.232273E-05	1.233241E-06
900	620.75	-1.536901E-05	1.368038E-06
900	621	-1.490311E-05	1.244358E-06
900	621.25	-1.450888E-05	9.077555E-07
900	621.5	-1.726846E-05	1.550203E-06
900	621.75	-1.404297E-05	1.463887E-06
900	622	-1.311117E-05	1.317825E-06
900	622.25	-1.515397E-05	1.094106E-06
900	622.5	-1.450887E-05	1.383493E-06
900	622.75	-1.253775E-05	1.21182E-06
900	623	-1.232271E-05	1.36574E-06
900	623.25	-1.354123E-05	1.356934E-06
900	623.5	-1.185681E-05	1.249279E-06
900	623.75	-1.339787E-05	1.182132E-06
900	624	-1.647999E-05	1.20331E-06
900	624.25	-1.325452E-05	2.087342E-06
900	624.5	-1.443718E-05	1.053097E-06
900	624.75	-1.425799E-05	1.467148E-06
900	625	-1.339786E-05	1.091494E-06
900	625.25	-1.275277E-05	1.221613E-06
900	625.5	-1.461638E-05	2.057247E-06
900	625.75	-1.178513E-05	1.295434E-06
900	626	-1.587073E-05	1.645761E-06
900	626.25	-1.29678E-05	9.814812E-07
900	626.5	-1.619327E-05	1.028762E-06
900	626.75	-1.486725E-05	1.680259E-06
900	627	-1.307531E-05	1.116827E-06
900	627.25	-1.368457E-05	1.455134E-06
900	627.5	-1.597824E-05	1.004121E-06
900	627.75	-1.25019E-05	1.455478E-06
900	628	-1.400711E-05	1.253213E-06
900	628.25	-1.529731E-05	1.258214E-06
900	628.5	-1.511811E-05	1.310113E-06
900	628.75	-1.755514E-05	1.295874E-06
900	629	-1.655166E-05	1.133568E-06
900	629.25	-1.691005E-05	1.473941E-06
900	629.5	-1.526147E-05	9.915352E-07
900	629.75	-1.300364E-05	1.026887E-06
900	630	-1.225103E-05	1.349446E-06
900	630.25	-1.268109E-05	1.200282E-06
900	630.5	-1.547651E-05	1.054858E-06
900	630.75	-1.54765E-05	1.068902E-06
900	631	-1.415048E-05	1.078935E-06
900	631.25	-1.604992E-05	1.447957E-06
900	631.5	-1.461638E-05	1.586149E-06
900	631.75	-1.579905E-05	9.430697E-07
900	632	-1.587073E-05	1.111832E-06
900	632.25	-1.561986E-05	1.329469E-06
900	632.5	-1.382793E-05	1.289139E-06
900	632.75	-1.404296E-05	1.572822E-06
900	633	-1.393545E-05	1.378533E-06
900	633.25	-1.235855E-05	1.33215E-06
900	633.5	-1.716093E-05	1.513684E-06
900	633.75	-1.569155E-05	1.348124E-06
900	634	-1.357707E-05	1.039938E-06
900	634.25	-1.658751E-05	1.499523E-06
900	634.5	-1.114004E-05	1.082633E-06
900	634.75	-1.47239E-05	8.887693E-07
900	635	-1.361291E-05	1.263309E-06
900	645	-1.472391E-05	1.044457E-06
900	645.25	-1.393546E-05	1.386379E-06
900	645.5	-1.511813E-05	1.896177E-06
900	645.75	-1.569155E-05	1.041789E-06
900	646	-1.375627E-05	1.787986E-06
900	646.25	-1.522565E-05	1.014092E-06
900	646.5	-1.486726E-05	1.34505E-06
900	646.75	-1.784187E-05	1.765859E-06
900	647	-1.200017E-05	1.317663E-06
900	647.25	-1.103253E-05	1.852049E-06
900	647.5	-1.26811E-05	1.405293E-06
900	647.75	-1.429384E-05	9.735982E-07
900	648	-1.687422E-05	1.455527E-06
900	648.25	-1.615745E-05	1.56249E-06
900	648.5	-1.497478E-05	1.637242E-06
900	648.75	-1.501062E-05	1.74754E-06
900	649	-1.569155E-05	1.385812E-06
900	649.25	-1.422216E-05	1.533309E-06
900	649.5	-1.540484E-05	1.187793E-06
900	649.75	-1.400714E-05	1.059785E-06
900	650	-1.135507E-05	1.369184E-06
900	650.25	-1.22152E-05	1.283815E-06
900	650.5	-1.515397E-05	1.552134E-06
900	650.75	-1.497477E-05	1.499809E-06
900	651	-1.47239E-05	1.260877E-06
900	651.25	-1.26811E-05	1.365165E-06
900	651.5	-1.397129E-05	9.64467E-07
900	651.75	-1.504645E-05	1.393258E-06
900	652	-1.651584E-05	9.115987E-07
900	652.25	-1.554818E-05	1.276792E-06
900	652.5	-1.540483E-05	1.454595E-06
900	652.75	-1.802105E-05	1.454154E-06
900	653	-1.379209E-05	1.100284E-06
900	653.25	-1.379209E-05	1.686109E-06
900	653.5	-1.651583E-05	1.365322E-06
900	653.75	-1.61216E-05	1.542403E-06
900	654	-1.601409E-05	1.425159E-06
900	654.25	-1.65875E-05	1.341065E-06
900	654.5	-1.67667E-05	1.264098E-06
900	654.75	-1.644415E-05	1.166087E-06
900	655	-1.493893E-05	1.516228E-06
900	655.25	-1.522564E-05	1.267256E-06
900	655.5	-1.368458E-05	1.68966E-06
900	655.75	-1.526148E-05	1.582501E-06
900	656	-1.465222E-05	1.411777E-06
900	656.25	-1.475973E-05	1.721829E-06
900	656.5	-1.436551E-05	1.072101E-06
900	656.75	-1.400712E-05	1.575315E-06
900	657	-1.235854E-05	1.552134E-06
900	657.25	-1.425799E-05	1.259291E-06
900	657.5	-1.780601E-05	1.320907E-06
900	657.75	-1.286028E-05	1.307059E-06
900	658	-1.626494E-05	1.021802E-06
900	658.25	-1.34337E-05	1.120908E-06
900	658.5	-1.547649E-05	1.230459E-06
900	658.75	-1.551233E-05	1.352192E-06
900	659	-1.357705E-05	1.077081E-06
900	659.25	-1.432966E-05	1.224821E-06
900	659.5	-1.615742E-05	1.339147E-06
900	659.75	-1.626494E-05	1.452483E-06
900	660	-1.554816E-05	1.206921E-06
900	660.25	-1.694587E-05	1.227904E-06
900	660.5	-1.397127E-05	9.672735E-07
900	660.75	-1.382791E-05	1.639156E-06
900	661	-1.339784E-05	9.691155E-07
900	661.25	-1.458052E-05	9.860498E-07
900	661.5	-1.511809E-05	1.381633E-06
900	661.75	-1.232269E-05	1.503703E-06
900	662	-1.429381E-05	1.49528E-06
900	662.25	-1.332617E-05	1.353088E-06
900	662.5	-1.551232E-05	1.412028E-06
900	662.75	-1.203597E-05	1.111189E-06
900	663	-1.253772E-05	1.30449E-06
900	663.25	-1.708922E-05	1.093387E-06
900	663.5	-1.859443E-05	1.455132E-06
900	663.75	-1.081746E-05	1.271302E-06
900	664	-1.379206E-05	1.361342E-06
900	664.25	-1.4473E-05	7.784299E-07
900	664.5	-1.268107E-05	9.843114E-07
900	664.75	-1.673083E-05	1.229182E-06
900	665	-1.393542E-05	1.576717E-06
900	665.25	-1.443715E-05	1.122878E-06
900	665.5	-1.561983E-05	1.122688E-06
900	665.75	-1.561983E-05	1.584436E-06
900	666	-1.386374E-05	1.734298E-06
900	666.25	-1.239436E-05	1.093517E-06
900	666.5	-1.393541E-05	1.406762E-06
900	666.75	-1.286026E-05	1.013809E-06
900	667	-1.361287E-05	1.54785E-06
900	667.25	-1.490306E-05	1.394382E-06
900	667.5	-1.436548E-05	1.127571E-06
900	667.75	-1.658747E-05	1.144717E-06
900	668	-1.228685E-05	1.183156E-06
900	668.25	-1.325449E-05	1.049023E-06
900	668.5	-1.486722E-05	1.090053E-06
900	668.75	-1.325449E-05	1.376563E-06
900	669	-1.389958E-05	1.208457E-06
900	669.25	-1.422213E-05	1.456211E-06
900	669.5	-1.332617E-05	1.851468E-06
900	669.75	-1.551232E-05	1.168226E-06
900	670	-1.289611E-05	1.32231E-06
900	670.25	-1.357704E-05	1.20763E-06
900	670.5	-1.293195E-05	1.399746E-06
900	670.75	-1.461636E-05	7.193555E-07
900	671	-1.368456E-05	1.332577E-06
900	671.25	-1.443717E-05	1.829953E-06
900	671.5	-1.364872E-05	1.147084E-06
900	671.75	-1.561984E-05	1.617464E-06
900	672	-1.268108E-05	1.311473E-06
900	672.25	-1.289612E-05	1.219917E-06
900	672.5	-1.311114E-05	1.418885E-06
900	672.75	-1.203599E-05	1.307386E-06
900	673	-1.300362E-05	1.208811E-06
900	673.25	-1.382791E-05	1.056817E-06
900	673.5	-1.644413E-05	1.950087E-06
900	673.75	-1.475972E-05	9.521804E-07
900	674	-1.253773E-05	1.040897E-06
900	674.25	-1.214351E-05	1.209166E-06
900	674.5	-1.307531E-05	1.55172E-06
900	674.75	-1.68742E-05	1.118422E-06
900	675	-1.21435E-05	1.726423E-06
900	675.25	-1.32545E-05	8.081144E-07
900	675.5	-1.565568E-05	1.452041E-06
900	675.75	-1.400711E-05	9.186155E-07
900	676	-1.329033E-05	1.034985E-06
900	676.25	-1.490307E-05	9.271976E-07
900	676.5	-1.393544E-05	1.654754E-06
900	676.75	-1.533314E-05	1.01381E-06
900	677	-1.214351E-05	1.372982E-06
900	677.25	-1.737593E-05	1.146835E-06
900	677.5	-1.286028E-05	1.024452E-06
900	677.75	-1.321866E-05	1.357459E-06
900	678	-1.52973E-05	9.471461E-07
900	678.25	-1.465219E-05	1.219039E-06
900	678.5	-1.196431E-05	1.52547E-06
900	678.75	-1.526146E-05	1.174318E-06
900	679	-1.070995E-05	1.366209E-06
900	679.25	-1.35412E-05	9.431447E-07
900	679.5	-1.515394E-05	1.280251E-06
900	679.75	-1.644413E-05	1.360346E-06
900	680	-1.655164E-05	1.152545E-06
900	680.25	-1.554816E-05	1.413846E-06
900	680.5	-1.382791E-05	1.312071E-06
900	680.75	-1.200014E-05	1.397552E-06
900	681	-1.257356E-05	1.556815E-06
900	681.25	-1.483139E-05	1.460175E-06
900	681.5	-1.40071E-05	1.486762E-06
900	681.75	-1.379206E-05	1.30334E-06
900	682	-1.221517E-05	1.462519E-06
900	682.25	-1.307529E-05	1.405951E-06
900	682.5	-1.085331E-05	1.275337E-06
900	682.75	-8.774666E-06	1.0911E-06
900	683	-1.088914E-05	1.380238E-06
900	683.25	-8.989695E-06	1.231154E-06
900	683.5	-1.024404E-05	1.533493E-06
900	683.75	-9.670626E-06	1.077279E-06
900	684	-9.383919E-06	1.286423E-06
900	684.25	-1.296777E-05	1.529066E-06
900	684.5	-8.165406E-06	1.605464E-06
900	684.75	-1.185678E-05	1.021173E-06
900	685	-1.350535E-05	1.267198E-06
900	685.25	-9.81398E-06	1.128394E-06
900	685.5	-1.42938E-05	1.113882E-06
900	685.75	-1.246603E-05	1.419286E-06
900	686	-1.214348E-05	1.568412E-06
900	686.25	-1.135503E-05	1.257702E-06
900	686.5	-1.41146E-05	1.310492E-06
900	686.75	-1.311112E-05	1.253496E-06
900	687	-1.27169E-05	1.301148E-06
900	687.25	-1.375621E-05	1.68492E-06
900	687.5	-1.192845E-05	2.083574E-06
900	687.75	-1.078161E-05	1.465637E-06
900	688	-1.0029E-05	9.407195E-07
900	688.25	-1.031571E-05	9.706598E-07
900	688.5	-1.475969E-05	1.480508E-06
900	688.75	-9.491427E-06	1.295377E-06
900	689	-1.049491E-05	1.043498E-06
900	689.25	-1.25377E-05	1.301367E-06
900	689.5	-9.419748E-06	1.845599E-06
900	689.75	-1.027987E-05	1.445785E-06
900	690	-1.092496E-05	1.286366E-06
900	690.25	-1.332615E-05	1.379875E-06
900	690.5	-1.124751E-05	1.641764E-06
900	690.75	-1.09608E-05	8.394692E-07
900	691	-1.278857E-05	1.383903E-06
900	691.25	-1.30036E-05	1.014934E-06
900	691.5	-1.382789E-05	1.115482E-06
900	691.75	-1.393541E-05	9.327211E-07
900	692	-1.192844E-05	1.494801E-06
900	692.25	-1.099664E-05	1.334181E-06
900	692.5	-1.013651E-05	9.517293E-07
900	692.75	-1.257354E-05	1.100736E-06
900	693	-1.475969E-05	1.271638E-06
900	693.25	-1.529727E-05	1.275336E-06
900	693.5	-1.174926E-05	1.326027E-06
900	693.75	-1.536895E-05	1.424354E-06
900	694	-1.447298E-05	1.362337E-06
900	694.25	-1.493888E-05	1.366677E-06
900	694.5	-1.587069E-05	1.377598E-06
900	694.75	-1.61574E-05	1.331022E-06
900	695	-1.389957E-05	1.574768E-06
900	830	-9.598942E-06	1.38447E-06
900	830.25	-1.171342E-05	1.081048E-06
900	830.5	-1.518976E-05	1.297523E-06
900	830.75	-1.361286E-05	1.064083E-06
900	831	-1.275274E-05	1.141283E-06
900	831.25	-1.934703E-05	1.222954E-06
900	831.5	-1.916784E-05	1.398674E-06
900	831.75	-1.676666E-05	1.163574E-06
900	832	-1.475971E-05	1.257702E-06
900	832.25	-1.805686E-05	9.359292E-07
900	832.5	-1.748344E-05	1.212701E-06
900	832.75	-1.415045E-05	1.10255E-06
900	833	-1.483138E-05	1.709934E-06
900	833.25	-1.260939E-05	1.302902E-06
900	833.5	-9.742302E-06	1.5367E-06
900	833.75	-3.327198E-06	1.465492E-06
900	834	3.482133E-06	1.071035E-06
900	834.25	2.211825E-05	9.798104E-07
900	834.5	2.849754E-05	1.282372E-06
900	834.75	3.251148E-05	1.568646E-06
900	835	2.57738E-05	1.32501E-06
900	835.25	1.570312E-05	1.225465E-06
900	835.5	9.467188E-06	1.131176E-06
900	835.75	-1.734016E-07	1.53014E-06
900	836	-5.585031E-06	1.093517E-06
900	836.25	-1.063827E-05	1.067565E-06
900	836.5	-1.253772E-05	1.367409E-06
900	836.75	-1.458052E-05	1.455771E-06
900	837	-1.6695E-05	1.552638E-06
900	837.25	-1.977711E-05	9.800977E-07
900	837.5	-1.945456E-05	1.104878E-06
900	837.75	-1.923953E-05	1.26212E-06
900	838	-2.04222E-05	1.477035E-06
900	838.25	-2.271587E-05	1.434837E-06
900	838.5	-2.343264E-05	1.633923E-06
900	838.75	-2.404191E-05	1.352772E-06
900	839	-2.207078E-05	1.298239E-06
900	839.25	-2.19991E-05	1.273265E-06
900	839.5	-2.178407E-05	1.827417E-06
900	839.75	-1.981295E-05	1.209932E-06
900	840	-1.90245E-05	1.47544E-06
900	840.25	-1.827188E-05	9.31803E-07
900	840.5	-1.042324E-05	1.045207E-06
900	840.75	9.734305E-07	9.156585E-07
900	841	4.270584E-06	1.379049E-06
900	841.25	-4.975774E-06	1.765775E-06
900	841.5	-1.063827E-05	1.15304E-06
900	841.75	-1.608573E-05	1.506784E-06
900	842	-1.870195E-05	9.37072E-07
900	842.25	-2.397022E-05	1.144405E-06
900	842.5	-2.551127E-05	1.992974E-06
900	842.75	-2.189158E-05	1.226159E-06
900	843	-2.393438E-05	1.183397E-06
900	843.25	-2.511705E-05	1.000346E-06
900	843.5	-2.465115E-05	8.728899E-07
900	843.75	-2.475867E-05	1.097556E-06
900	844	-2.203493E-05	1.536143E-06
900	844.25	-2.608469E-05	1.298568E-06
900	844.5	-2.751823E-05	1.302409E-06
900	844.75	-2.608468E-05	1.261497E-06
900	845	-2.472282E-05	1.635014E-06
900	845.25	-2.529624E-05	1.288695E-06
900	845.5	-2.429276E-05	1.101384E-06
900	845.75	-2.7124E-05	1.11708E-06
900	846	-2.662226E-05	1.528739E-06
900	846.25	-2.841419E-05	1.04582E-06
900	846.5	-2.533207E-05	1.265901E-06
900	846.75	-2.708816E-05	1.378996E-06
900	847	-2.733903E-05	1.487912E-06
900	847.25	-2.633554E-05	1.43399E-06
900	847.5	-2.733903E-05	1.119824E-06
900	847.75	-2.748238E-05	1.323764E-06
900	848	-2.4902E-05	1.373967E-06
900	848.25	-2.83425E-05	1.103778E-06
900	848.5	-2.701647E-05	9.217933E-07
900	848.75	-2.547541E-05	1.272927E-06
900	849	-2.715983E-05	9.227994E-07
900	849.25	-2.683727E-05	1.928485E-06
900	849.5	-2.647889E-05	1.284034E-06
900	849.75	-2.701646E-05	1.675534E-06
900	850	-2.414939E-05	1.270009E-06
900	850.25	-2.457944E-05	1.433542E-06
900	850.5	-2.794826E-05	1.48863E-06
900	850.75	-2.529622E-05	1.072831E-06
900	851	-2.698063E-05	1.531769E-06
900	851.25	-2.708814E-05	1.085197E-06
900	851.5	-2.680143E-05	1.419637E-06
900	851.75	-2.569044E-05	1.400508E-06
900	852	-2.776907E-05	1.442424E-06
900	852.25	-2.780491E-05	1.029938E-06
900	852.5	-2.75182E-05	1.282477E-06
900	852.75	-2.934596E-05	1.487383E-06
900	853	-2.651473E-05	1.643241E-06
900	853.25	-2.540373E-05	1.143094E-06
900	853.5	-2.712397E-05	1.282087E-06
900	853.75	-2.436441E-05	1.253325E-06
900	854	-2.543957E-05	1.443314E-06
900	854.25	-2.698062E-05	1.745246E-06
900	854.5	-2.920261E-05	1.259515E-06
900	854.75	-2.579795E-05	1.25736E-06
900	855	-2.644304E-05	1.222544E-06
900	855.25	-2.676559E-05	1.562942E-06
900	855.5	-2.655057E-05	1.564403E-06
900	855.75	-2.683727E-05	1.567E-06
900	856	-2.543957E-05	1.131613E-06
900	856.25	-2.687311E-05	1.215462E-06
900	856.5	-2.626386E-05	1.253211E-06
900	856.75	-2.75182E-05	1.874294E-06
900	857	-2.475864E-05	1.057288E-06
900	857.25	-2.536789E-05	9.845276E-07
900	857.5	-2.852168E-05	1.603327E-06
900	857.75	-2.339678E-05	1.183155E-06
900	858	-2.604882E-05	1.488822E-06
900	858.25	-2.572629E-05	1.412987E-06
900	858.5	-2.637138E-05	7.462302E-07
900	858.75	-2.461529E-05	1.265337E-06
900	859	-2.46153E-05	1.325004E-06
900	859.25	-2.282336E-05	1.272367E-06
900	859.5	-2.432859E-05	1.616227E-06
900	859.75	-2.569045E-05	1.354247E-06
900	860	-2.626387E-05	1.257531E-06
900	860.25	-2.655058E-05	1.070434E-06
900	860.5	-2.676561E-05	8.443006E-07
900	860.75	-2.472281E-05	1.334609E-06
900	861	-2.293089E-05	1.472244E-06
900	861.25	-2.493785E-05	1.495947E-06
900	861.5	-2.52604E-05	1.60573E-06
900	861.75	-2.784077E-05	1.297688E-06
900	862	-2.583383E-05	1.525141E-06
900	862.25	-2.676562E-05	1.131173E-06
900	862.5	-2.608468E-05	1.084672E-06
900	862.75	-2.730319E-05	1.3952E-06
900	863	-2.311008E-05	8.47422E-07
900	863.25	-2.493785E-05	1.359191E-06
900	863.5	-2.547543E-05	1.553097E-06
900	863.75	-2.579798E-05	1.508345E-06
900	864	-2.551126E-05	1.49733E-06
900	864.25	-2.43286E-05	1.00483E-06
900	864.5	-2.536791E-05	1.185686E-06
900	864.75	-2.339679E-05	1.426307E-06
900	865	-2.569046E-05	1.330003E-06
900	865.25	-2.250083E-05	8.303245E-07
900	865.5	-2.156903E-05	1.209341E-06
900	865.75	-2.156903E-05	1.359243E-06
900	866	-2.250083E-05	1.640286E-06
900	866.25	-2.361182E-05	1.390795E-06
900	866.5	-2.311008E-05	1.36965E-06
900	866.75	-2.336095E-05	1.83653E-06
900	867	-2.221411E-05	1.222662E-06
900	867.25	-2.332511E-05	1.427457E-06
900	867.5	-2.092393E-05	1.353245E-06
900	867.75	-2.174821E-05	6.583422E-07
900	868	-2.25725E-05	1.496996E-06
900	868.25	-2.174821E-05	1.266803E-06
900	868.5	-1.931119E-05	8.779432E-07
900	868.75	-2.35043E-05	1.072299E-06
900	869	-2.357597E-05	1.520219E-06
900	869.25	-1.891696E-05	1.282199E-06
900	869.5	-1.981292E-05	1.34976E-06
900	869.75	-2.357597E-05	1.566773E-06
900	870	-2.407771E-05	1.240219E-06
900	870.25	-2.027883E-05	9.535272E-07
900	870.5	-2.153316E-05	1.801062E-06
900	870.75	-2.275168E-05	1.496185E-06
900	871	-2.11031E-05	1.372355E-06
900	871.25	-1.859441E-05	1.290188E-06
900	871.5	-2.031466E-05	1.233584E-06
900	871.75	-1.920366E-05	1.696947E-06
900	872	-2.138981E-05	8.737877E-07
900	872.25	-2.024298E-05	9.802421E-07
900	872.5	-1.880944E-05	1.477709E-06
900	872.75	-2.088807E-05	1.389819E-06
900	873	-1.906031E-05	1.445488E-06
900	873.25	-1.744757E-05	1.29168E-06
900	873.5	-2.13898E-05	1.081772E-06
900	873.75	-1.809265E-05	1.338984E-06
900	874	-1.762675E-05	8.000371E-07
900	874.25	-1.694582E-05	1.157423E-06
900	874.5	-1.759092E-05	1.388688E-06
900	874.75	-1.805682E-05	1.270233E-06
900	875	-1.956203E-05	1.193542E-06
900	875.25	-1.845104E-05	8.957241E-07
900	875.5	-1.884526E-05	1.199208E-06
900	875.75	-1.669495E-05	1.089855E-06
900	876	-1.655159E-05	1.127569E-06
900	876.25	-1.601401E-05	1.048E-06
900	876.5	-1.594234E-05	1.166206E-06
900	876.75	-1.504637E-05	1.701648E-06
900	877	-1.346948E-05	1.594221E-06
900	877.25	-1.189258E-05	1.228773E-06
900	877.5	-1.346948E-05	1.0701E-06
900	877.75	-1.08891E-05	1.031737E-06
900	878	-1.124749E-05	1.156251E-06
900	878.25	-1.182091E-05	6.774649E-07
900	878.5	-9.168855E-06	9.121431E-07
900	878.75	-1.15342E-05	1.263586E-06
900	879	-6.803516E-06	1.147455E-06
900	879.25	-4.832395E-06	1.336637E-06
900	879.5	2.120277E-06	1.411774E-06
900	879.75	2.908725E-06	1.285422E-06
900	880	1.16175E-05	1.419237E-06
900	880.25	1.448459E-05	1.599366E-06
900	880.5	3.175882E-05	1.354145E-06
900	880.75	4.788623E-05	1.180985E-06
900	881	6.372691E-05	1.604622E-06
900	881.25	8.712956E-05	1.001988E-06
900	881.5	0.0001044755	7.36802E-07
900	881.75	0.0001107473	1.594183E-06
900	882	0.000102576	1.504939E-06
900	882.25	0.0001124317	1.151556E-06
900	882.5	0.0001263371	1.208755E-06
900	882.75	0.0001227532	1.338137E-06
900	883	0.0001130409	1.324092E-06
900	883.25	9.841875E-05	1.545455E-06
900	883.5	8.630528E-05	1.411223E-06
900	883.75	7.695142E-05	1.307607E-06
900	884	5.870953E-05	1.449929E-06
900	884.25	5.025159E-05	1.241028E-06
900	884.5	4.032428E-05	9.187726E-07
900	884.75	3.261897E-05	1.320315E-06
900	885	2.208239E-05	1.838244E-06
900	885.25	1.677827E-05	1.485901E-06
900	885.5	1.566727E-05	9.308861E-07
900	885.75	1.172502E-05	1.187793E-06
900	886	1.100825E-05	1.75524E-06
900	886.25	5.524937E-06	1.227905E-06
900	886.5	5.955001E-06	1.304381E-06
900	886.75	3.159591E-06	1.17164E-06
900	887	2.335304E-06	1.424354E-06
900	887.25	9.375991E-07	1.092668E-06
900	887.5	-5.31781E-07	1.263023E-06
900	887.75	-2.287872E-06	9.562921E-07
900	888	-5.513338E-06	1.338665E-06
900	888.25	-4.079796E-06	1.469672E-06
900	888.5	-6.588496E-06	1.084013E-06
900	888.75	-7.090237E-06	1.277181E-06
900	889	-4.474021E-06	1.150561E-06
900	889.25	-8.487941E-06	1.166513E-06
900	889.5	-7.376941E-06	1.03388E-06
900	889.75	-8.272909E-06	1.058839E-06
900	890	-7.520297E-06	1.296862E-06
900	890.25	-8.272908E-06	1.095342E-06
900	890.5	-1.035154E-05	1.025703E-06
900	890.75	-6.624334E-06	1.194678E-06
900	891	-5.943401E-06	1.292784E-06
900	891.25	-7.448618E-06	1.663739E-06
900	891.5	-9.849799E-06	1.497329E-06
900	891.75	-6.445143E-06	1.250646E-06
900	892	-6.767687E-06	9.918928E-07
900	892.25	-6.445139E-06	1.350711E-06
900	892.5	-5.764207E-06	1.197482E-06
900	892.75	-1.786131E-06	1.504982E-06
900	893	-1.606938E-06	1.182008E-06
900	893.25	1.849915E-07	1.570276E-06
900	893.5	-4.959402E-07	1.22161E-06
900	893.75	4.557299E-06	1.630032E-06
900	894	9.825574E-06	1.52102E-06
900	894.25	1.717249E-05	1.381946E-06
900	894.5	2.745819E-05	1.318746E-06
900	894.75	4.272547E-05	1.637156E-06
900	895	5.896038E-05	9.666112E-07
900	895.25	7.587624E-05	8.020002E-07
900	895.5	7.576873E-05	8.562201E-07
900	895.75	7.480109E-05	1.752353E-06
900	896	5.759851E-05	1.201709E-06
900	896.25	4.222373E-05	1.211821E-06
900	896.5	3.000274E-05	1.306842E-06
900	896.75	1.950201E-05	1.43484E-06
900	897	1.452043E-05	1.178687E-06
900	897.25	8.607062E-06	1.749089E-06
900	897.5	4.413944E-06	1.254122E-06
900	897.75	3.733012E-06	1.203367E-06
900	898	8.659283E-07	1.488726E-06
900	898.25	-6.392888E-07	1.719047E-06
900	898.5	5.802264E-09	1.143905E-06
900	898.75	-4.402336E-06	1.448544E-06
900	899	-3.255501E-06	1.267308E-06
900	899.25	-6.767678E-06	1.524249E-06
900	899.5	-6.695997E-06	1.124337E-06
900	899.75	-6.265935E-06	1.427955E-06
900	900	-6.122579E-06	1.56093E-06
900	900.25	-6.552642E-06	1.813065E-06
900	900.5	-1.210761E-05	1.304213E-06
900	900.75	-1.243016E-05	1.216165E-06
900	901	-1.106829E-05	1.265335E-06
900	901.25	-1.260935E-05	1.174862E-06
900	901.5	-7.878667E-06	1.425304E-06
900	901.75	-1.257351E-05	1.563762E-06
900	902	-1.379202E-05	1.286586E-06
900	902.25	-1.146251E-05	1.157608E-06
900	902.5	-1.271686E-05	1.438708E-06
900	902.75	-6.946862E-06	9.879992E-07
900	903	-4.509848E-06	1.267308E-06
900	903.25	-3.040469E-06	1.339623E-06
900	903.5	1.260153E-06	1.044658E-06
900	903.75	9.25215E-06	9.45336E-07
900	904	2.516451E-05	1.823472E-06
900	904.25	5.118336E-05	1.448894E-06
900	904.5	8.085776E-05	1.316796E-06
900	904.75	0.0001038303	1.13734E-06
900	905	0.0001028269	1.79976E-06
900	905.25	8.727289E-05	1.39551E-06
900	905.5	6.028637E-05	9.697795E-07
900	905.75	4.021674E-05	1.318204E-06
900	906	2.394599E-05	1.464715E-06
900	906.25	1.401869E-05	1.389052E-06
900	906.5	6.49258E-06	1.070768E-06
900	906.75	9.376044E-07	1.513963E-06
900	907	-5.51333E-06	1.342709E-06
900	907.25	-6.946869E-06	1.651599E-06
900	907.5	-1.078159E-05	1.45356E-06
900	907.75	-1.182091E-05	1.294769E-06
900	908	-1.203594E-05	1.075222E-06
900	908.25	-1.447296E-05	1.304377E-06
900	908.5	-1.314694E-05	1.090902E-06
900	908.75	-1.293191E-05	1.453904E-06
900	909	-1.669495E-05	1.508344E-06
900	909.25	-1.565563E-05	1.556582E-06
900	909.5	-1.615738E-05	1.46115E-06
900	909.75	-1.680247E-05	1.233757E-06
900	910	-1.533309E-05	1.17947E-06
900	910.25	-1.447297E-05	9.234172E-07
900	910.5	-1.486719E-05	1.086314E-06
900	910.75	-1.680247E-05	1.877033E-06
900	911	-1.902446E-05	1.793917E-06
900	911.25	-1.70175E-05	1.18237E-06
900	911.5	-1.730422E-05	1.323063E-06
900	911.75	-1.260937E-05	1.527991E-06
900	912	-1.479552E-05	1.039318E-06
900	912.25	-1.755509E-05	1.675491E-06
900	912.5	-1.250185E-05	1.23803E-06
900	912.75	-1.529725E-05	9.753526E-07
900	913	-1.44013E-05	1.110095E-06
900	913.25	-1.017235E-05	1.006816E-06
900	913.5	-9.527252E-06	1.079263E-06
900	913.75	-6.337622E-06	1.348755E-06
900	914	-2.932961E-06	1.568138E-06
900	914.25	-3.167481E-07	1.32538E-06
900	914.5	5.238231E-06	1.496473E-06
900	914.75	1.29077E-05	1.595883E-06
900	915	2.046965E-05	1.413496E-06
900	915.25	3.071952E-05	1.159769E-06
900	915.5	4.64527E-05	1.571962E-06
900	915.75	6.591309E-05	1.007032E-06
900	916	8.906488E-05	1.009721E-06
900	916.25	0.0001085611	1.234687E-06
900	916.5	0.0001229683	1.092998E-06
900	916.75	0.0001221798	1.595839E-06
900	917	0.0001121091	1.301042E-06
900	917.25	9.537248E-05	1.277464E-06
900	917.5	7.666467E-05	7.574318E-07
900	917.75	6.136157E-05	1.605023E-06
900	918	4.820878E-05	1.413648E-06
900	918.25	3.742134E-05	1.791216E-06
900	918.5	2.792409E-05	1.227384E-06
900	918.75	2.308588E-05	1.005543E-06
900	919	1.649156E-05	1.482294E-06
900	919.25	1.111576E-05	1.694045E-06
900	919.5	1.129495E-05	1.246019E-06
900	919.75	5.274072E-06	1.674002E-06
900	920	2.586176E-06	1.100929E-06
900	920.25	2.837045E-06	1.145837E-06
900	920.5	7.584124E-07	1.497519E-06
900	920.75	-9.618385E-07	1.154522E-06
900	921	2.925131E-07	1.310327E-06
900	921.25	-4.24257E-07	1.310436E-06
900	921.5	-3.828916E-06	1.442423E-06
900	921.75	-3.721399E-06	1.251728E-06
900	922	-2.610406E-06	1.398417E-06
900	922.25	-4.47401E-06	9.562162E-07
900	922.5	-8.523762E-06	1.407926E-06
900	922.75	-8.129537E-06	1.298511E-06
900	923	-9.455559E-06	1.469184E-06
900	923.25	-9.527239E-06	1.286697E-06
900	923.5	-8.917983E-06	1.25611E-06
900	923.75	-1.307525E-05	1.263756E-06
900	924	-1.260935E-05	1.187488E-06
900	924.25	-1.526139E-05	9.395794E-07
900	924.5	-1.38637E-05	1.375989E-06
900	924.75	-1.701748E-05	1.135577E-06
900	925	-1.590649E-05	1.067495E-06
900	925.25	-1.816431E-05	1.333055E-06
900	925.5	-1.587065E-05	1.341698E-06
900	925.75	-1.848685E-05	1.746143E-06
900	926	-1.970537E-05	1.275334E-06
900	926.25	-1.744754E-05	1.275837E-06
900	926.5	-1.99204E-05	1.80569E-06
900	926.75	-1.769841E-05	1.150993E-06
900	927	-2.027878E-05	1.342124E-06
900	927.25	-2.013543E-05	1.361077E-06
900	927.5	-2.167648E-05	1.366048E-06
900	927.75	-1.984872E-05	8.859512E-07
900	928	-2.02071E-05	1.044521E-06
900	928.25	-1.916779E-05	1.466802E-06
900	928.5	-2.095971E-05	1.243549E-06
900	928.75	-1.719667E-05	1.040757E-06
900	929	-1.780593E-05	1.619664E-06
900	929.25	-1.891692E-05	1.341113E-06
900	929.5	-1.823599E-05	1.395607E-06
900	929.75	-1.837934E-05	1.404577E-06
900	930	-1.823599E-05	1.207036E-06
900	930.25	-1.909611E-05	1.148262E-06
900	930.5	-1.676661E-05	1.047046E-06
900	930.75	-1.633654E-05	1.057691E-06
900	931	-1.662326E-05	1.335302E-06
900	931.25	-1.626487E-05	1.089854E-06
900	931.5	-1.619319E-05	1.620369E-06
900	931.75	-1.117581E-05	1.851733E-06
900	932	-1.604984E-05	1.215871E-06
900	932.25	-1.311109E-05	1.573814E-06
900	932.5	-1.683829E-05	1.302187E-06
900	932.75	-1.766258E-05	1.110544E-06
900	933	-1.630071E-05	1.200872E-06
900	933.25	-1.716084E-05	1.242114E-06
900	933.5	-1.300358E-05	1.394226E-06
900	933.75	-1.511805E-05	1.091033E-06
900	934	-1.708916E-05	1.363748E-06
900	934.25	-1.773426E-05	1.506734E-06
900	934.5	-1.511805E-05	1.131297E-06
900	934.75	-1.565563E-05	1.410357E-06
900	935	-1.461631E-05	1.128708E-06
900	935.25	-1.15342E-05	1.399998E-06
900	935.5	-1.225097E-05	8.784296E-07
900	935.75	-8.774633E-06	1.402137E-06
900	936	-1.045904E-05	1.798009E-06
900	936.25	-8.989671E-06	1.416516E-06
900	936.5	-6.373454E-06	1.10494E-06
900	936.75	-7.109697E-07	9.463151E-07
900	937	1.849942E-07	7.641817E-07
900	937.25	2.191955E-06	1.565907E-06
900	937.5	7.388544E-06	1.030286E-06
900	937.75	1.222676E-05	1.36908E-06
900	938	1.176086E-05	1.184423E-06
900	938.25	1.624069E-05	1.511421E-06
900	938.5	1.613317E-05	1.197546E-06
900	938.75	1.58823E-05	1.535357E-06
900	939	1.448459E-05	1.228255E-06
900	939.25	1.190421E-05	1.249793E-06
900	939.5	8.427864E-06	1.359192E-06
900	939.75	8.499542E-06	1.260594E-06
900	940	9.789735E-06	1.863952E-06
900	940.25	3.052079E-06	1.352929E-06
900	940.5	5.345746E-06	1.461249E-06
900	940.75	4.23475E-06	1.305254E-06
900	941	2.657853E-06	1.382509E-06
900	941.25	2.191954E-06	1.48046E-06
900	941.5	5.094879E-06	1.549141E-06
900	941.75	-7.468055E-07	1.620855E-06
900	942	-6.587513E-08	1.335624E-06
900	942.25	1.133177E-07	1.322685E-06
900	942.5	-2.108669E-06	1.4145E-06
900	942.75	-3.649728E-06	1.044385E-06
900	943	-4.187302E-06	1.296036E-06
900	943.25	-3.828918E-06	1.225982E-06
900	943.5	-3.363021E-06	1.085854E-06
900	943.75	-4.959373E-07	1.574586E-06
900	944	-1.248545E-06	1.299939E-06
900	944.25	7.942502E-07	1.411925E-06
900	944.5	3.641888E-07	1.109323E-06
900	944.75	-1.535251E-06	1.136645E-06
900	945	-3.884181E-07	1.431948E-06
900	945.25	2.442828E-06	1.785385E-06
900	945.5	3.948043E-06	1.246474E-06
900	945.75	1.475188E-06	1.668108E-06
900	946	3.804687E-06	1.153347E-06
900	946.25	3.01624E-06	1.062337E-06
900	946.5	1.797736E-06	1.977554E-06
900	946.75	1.403507E-06	1.084604E-06
900	947	1.491603E-07	1.2769E-06
900	947.25	6.867381E-07	1.406506E-06
900	947.5	-4.600939E-07	1.324894E-06
900	947.75	2.925139E-07	1.342018E-06
900	948	-7.468019E-07	1.442966E-06
900	948.25	-2.072825E-06	1.295815E-06
900	948.5	1.224318E-06	1.563899E-06
900	948.75	2.048603E-06	1.397804E-06
900	949	4.557299E-06	1.10326E-06
900	949.25	3.087923E-06	1.652291E-06
900	949.5	3.37463E-06	1.393613E-06
900	949.75	4.879848E-06	1.573589E-06
900	950	9.037118E-06	1.036707E-06
900	950.25	8.893765E-06	1.243035E-06
900	950.5	1.30152E-05	1.197722E-06
900	950.75	1.333775E-05	6.840703E-07
900	951	1.183253E-05	1.535306E-06
900	951.25	1.136662E-05	7.597826E-07
900	951.5	1.072153E-05	1.406408E-06
900	951.75	7.746934E-06	1.635363E-06
900	952	8.248673E-06	1.575176E-06
900	952.25	5.417427E-06	1.346107E-06
900	952.5	3.267113E-06	1.04014E-06
900	952.75	-7.826377E-07	1.229469E-06
900	953	2.925212E-07	1.321659E-06
900	953.25	-2.036984E-06	1.023822E-06
900	953.5	-4.402323E-06	1.400964E-06
900	953.75	-7.233561E-06	1.537067E-06
900	954	-4.868221E-06	1.665065E-06
900	954.25	-8.559585E-06	1.399384E-06
900	954.5	-1.031567E-05	1.38699E-06
900	954.75	-1.157002E-05	1.266518E-06
900	955	-1.282436E-05	1.667292E-06
900	955.25	-1.121163E-05	1.432543E-06
900	955.5	-1.189257E-05	1.701605E-06
900	955.75	-1.389952E-05	1.01451E-06
900	956	-1.422207E-05	1.536835E-06
900	956.25	-1.719667E-05	1.42365E-06
900	956.5	-1.647989E-05	1.189708E-06
900	956.75	-1.805679E-05	1.553506E-06
900	957	-1.69458E-05	1.210106E-06
900	957.25	-1.81643E-05	1.244696E-06
900	957.5	-2.00279E-05	1.304486E-06
900	957.75	-1.966952E-05	1.625995E-06
900	958	-1.773425E-05	1.167E-06
900	958.25	-1.952616E-05	1.106295E-06
900	958.5	-1.837934E-05	1.26223E-06
900	958.75	-1.938282E-05	1.252811E-06
900	959	-2.156896E-05	1.240332E-06
900	959.25	-2.063717E-05	1.616666E-06
900	959.5	-2.103139E-05	1.372822E-06
900	959.75	-2.009959E-05	1.158593E-06
900	960	-2.192735E-05	1.891874E-06
900	960.25	-2.124642E-05	1.488389E-06
900	960.5	-2.110307E-05	1.384158E-06
900	960.75	-2.235742E-05	1.413843E-06
900	961	-2.160481E-05	1.254461E-06
900	961.25	-1.873773E-05	1.279802E-06
900	961.5	-2.296668E-05	1.364219E-06
900	961.75	-2.42927E-05	1.389817E-06
900	962	-2.149729E-05	1.050787E-06
900	962.25	-2.275165E-05	1.291955E-06
900	962.5	-2.24291E-05	1.213227E-06
900	962.75	-1.949034E-05	1.77299E-06
900	963	-2.042215E-05	9.983454E-07
900	963.25	-2.035047E-05	1.457139E-06
900	963.5	-2.131811E-05	1.424051E-06
900	963.75	-2.325338E-05	1.276005E-06
900	964	-2.088805E-05	7.988766E-07
900	964.25	-2.099556E-05	1.437616E-06
900	964.5	-2.081636E-05	1.775202E-06
900	964.75	-2.164065E-05	1.128075E-06
900	965	-1.931115E-05	1.29895E-06
900	965.25	-2.095972E-05	1.218216E-06
900	965.5	-2.31817E-05	9.842367E-07
900	965.75	-2.017127E-05	1.685172E-06
900	966	-1.809264E-05	1.326778E-06
900	966.25	-1.802096E-05	9.739605E-07
900	966.5	-1.827183E-05	1.689908E-06
900	966.75	-1.701748E-05	1.249274E-06
900	967	-1.630071E-05	1.84459E-06
900	967.25	-1.418624E-05	1.526354E-06
900	967.5	-1.644406E-05	1.839166E-06
900	967.75	-1.389953E-05	1.458558E-06
900	968	-1.4903E-05	1.405033E-06
900	968.25	-1.257351E-05	1.182671E-06
900	968.5	-1.200008E-05	1.3094E-06
900	968.75	-1.293189E-05	1.181221E-06
900	969	-1.314692E-05	1.409698E-06
900	969.25	-1.035152E-05	1.132494E-06
900	969.5	-7.986177E-06	1.468553E-06
900	969.75	-1.339779E-05	1.479589E-06
415	390	-0.0004970268	4.864894E-06
415	390.25	-0.000505763	3.590054E-06
415	390.5	-0.0005028064	4.396462E-06
415	390.75	-0.0005051647	4.156849E-06
415	391	-0.0005011618	4.591682E-06
415	391.25	-0.0004939867	4.21338E-06
415	391.5	-0.0005019422	4.963925E-06
415	391.75	-0.0005038687	4.949447E-06
415	392	-0.0005088845	4.819123E-06
415	392.25	-0.0005018919	4.339098E-06
415	392.5	-0.0005014931	4.61103E-06
415	392.75	-0.0004983208	5.200708E-06
415	393	-0.0005057613	3.441253E-06
415	393.25	-0.0005019578	3.847804E-06
415	393.5	-0.0005088669	4.066242E-06
415	393.75	-0.0005030702	3.86142E-06
415	394	-0.0004916267	4.247938E-06
415	394.25	-0.0004996652	4.680361E-06
415	394.5	-0.0004983863	3.897596E-06
415	394.75	-0.0004990171	4.342471E-06
415	395	-0.000501143	4.198002E-06
415	395.25	-0.0005050292	4.914284E-06
415	395.5	-0.0005037835	5.302498E-06
415	395.75	-0.0004996478	4.608887E-06
415	396	-0.000507238	2.970282E-06
415	396.25	-0.0004975549	4.254335E-06
415	396.5	-0.0004947312	4.206097E-06
415	396.75	-0.0004933857	3.607665E-06
415	397	-0.0005070214	4.841571E-06
415	397.25	-0.0004959267	4.38616E-06
415	397.5	-0.0005011417	5.548732E-06
415	397.75	-0.0005020882	4.57613E-06
415	398	-0.0004988495	3.635311E-06
415	398.25	-0.0005031843	3.703296E-06
415	398.5	-0.0005071702	4.327786E-06
415	398.75	-0.0005086483	3.747146E-06
415	399	-0.0005090302	3.714759E-06
415	399.25	-0.0004960421	3.938449E-06
415	399.5	-0.0004982675	3.739692E-06
415	399.75	-0.0005070534	3.943841E-06
415	400	-0.0005029677	3.989532E-06
415	400.25	-0.0005013231	4.232389E-06
415	400.5	-0.0004972373	3.945775E-06
415	400.75	-0.0004975529	3.182012E-06
415	401	-0.0004928525	3.948142E-06
415	401.25	-0.0004967223	4.61369E-06
415	401.5	-0.0004932343	4.922315E-06
415	401.75	-0.0005023358	3.748974E-06
415	402	-0.0004954764	4.213435E-06
415	402.25	-0.0004947622	3.284557E-06
415	402.5	-0.0004969378	4.12185E-06
415	402.75	-0.0004972864	4.201768E-06
415	403	-0.0005026178	4.52514E-06
415	403.25	-0.0004948449	3.537967E-06
415	403.5	-0.0005019864	3.375886E-06
415	403.75	-0.0004992791	4.158517E-06
415	404	-0.0004916059	5.695755E-06
415	404.25	-0.0004940972	3.699297E-06
415	404.5	-0.0004956748	4.189691E-06
415	404.75	-0.0004950934	4.039355E-06
415	405	-0.0005006573	4.492127E-06
415	405.25	-0.0004898117	5.132618E-06
415	405.5	-0.0004936315	4.548156E-06
415	405.75	-0.000490725	3.815566E-06
415	406	-0.0004903926	4.262126E-06
415	406.25	-0.0004850281	4.261426E-06
415	406.5	-0.0004740829	4.099068E-06
415	406.75	-0.0004776204	4.246192E-06
415	407	-0.0004528735	3.643275E-06
415	407.25	-0.000451827	3.608015E-06
415	407.5	-0.0004315477	4.486803E-06
415	407.75	-0.0004154373	3.050999E-06
415	408	-0.0003868205	4.091646E-06
415	408.25	-0.0003602798	4.442987E-06
415	408.5	-0.0003255178	4.757117E-06
415	408.75	-0.0002852584	4.201942E-06
415	409	-0.0002418102	3.744177E-06
415	409.25	-0.0002113	4.513546E-06
415	409.5	-0.0001787305	3.861151E-06
415	409.75	-0.0001432876	3.861405E-06
415	410	-0.0001189061	4.63794E-06
415	410.25	-0.0001114488	3.531548E-06
415	410.5	-0.0001014172	3.493062E-06
415	410.75	-8.826313E-05	3.641744E-06
415	411	-8.887765E-05	3.919321E-06
415	411.25	-9.040561E-05	4.620289E-06
415	411.5	-8.316424E-05	4.018551E-06
415	411.75	-7.580661E-05	4.402508E-06
415	412	-7.635469E-05	3.816686E-06
415	412.25	-7.32987E-05	3.294358E-06
415	412.5	-6.761853E-05	4.12448E-06
415	412.75	-6.906346E-05	3.81684E-06
415	413	-6.33501E-05	3.670502E-06
415	413.25	-6.197157E-05	4.675831E-06
415	413.5	-5.9746E-05	3.227246E-06
415	413.75	-6.418049E-05	3.816204E-06
415	414	-6.622333E-05	4.374395E-06
415	414.25	-5.703876E-05	3.987016E-06
415	414.5	-4.941541E-05	3.648543E-06
415	414.75	-5.30859E-05	4.736122E-06
415	415	-4.278858E-05	4.32805E-06
415	415.25	-4.488125E-05	3.871097E-06
415	415.5	-3.169404E-05	4.337435E-06
415	415.75	-3.790563E-05	4.10084E-06
415	416	-3.521503E-05	4.581071E-06
415	416.25	-3.855336E-05	3.680038E-06
415	416.5	-6.087525E-05	3.496866E-06
415	416.75	-7.90782E-05	4.42467E-06
415	417	-0.0001140724	4.163944E-06
415	417.25	-0.0001569723	4.860658E-06
415	417.5	-0.000200769	4.519464E-06
415	417.75	-0.0002430044	4.812143E-06
415	418	-0.0002933615	3.062326E-06
415	418.25	-0.0003332717	4.183456E-06
415	418.5	-0.0003575036	3.543926E-06
415	418.75	-0.000392913	4.470807E-06
415	419	-0.000410003	4.204574E-06
415	419.25	-0.000435962	4.243775E-06
415	419.5	-0.0004517733	3.635724E-06
415	419.75	-0.0004598615	4.349372E-06
415	420	-0.0004656744	4.193246E-06
415	420.25	-0.0004760713	4.219378E-06
415	420.5	-0.0004813196	4.34147E-06
415	420.75	-0.0004841429	3.79073E-06
415	421	-0.0004860528	4.426101E-06
415	421.25	-0.0004892083	4.500692E-06
415	421.5	-0.0004984425	4.928809E-06
415	421.75	-0.0004944232	3.862302E-06
415	422	-0.0004941906	3.412546E-06
415	422.25	-0.0004946723	4.075628E-06
415	422.5	-0.0004989073	3.497975E-06
415	422.75	-0.0004974125	4.061675E-06
415	423	-0.000503408	3.864656E-06
415	423.25	-0.0004929612	4.508251E-06
415	423.5	-0.0004994883	4.673816E-06
415	423.75	-0.0005026272	4.041181E-06
415	424	-0.0004999033	3.453744E-06
415	424.25	-0.0005011987	4.504225E-06
415	424.5	-0.0004991559	4.554849E-06
415	424.75	-0.0004956514	4.368834E-06
415	425	-0.0004967641	3.844704E-06
415	425.25	-0.0004959336	4.087052E-06
415	425.5	-0.0004972454	4.330809E-06
415	425.75	-0.0004991222	4.092492E-06
415	426	-0.0004995872	3.447489E-06
415	426.25	-0.0005011316	3.128002E-06
415	426.5	-0.0005015303	3.801511E-06
415	426.75	-0.0004912826	4.197299E-06
415	427	-0.000498906	4.752611E-06
415	427.25	-0.0004973779	4.803465E-06
415	427.5	-0.0005055823	3.95308E-06
415	427.75	-0.0005026261	3.237127E-06
415	428	-0.0005023768	3.017399E-06
415	428.25	-0.0004991048	4.458466E-06
415	428.5	-0.0004976268	2.856627E-06
415	428.75	-0.000501762	4.580075E-06
415	429	-0.0005019116	3.756899E-06
415	429.25	-0.0004986064	2.864188E-06
415	429.5	-0.0004992043	4.097682E-06
415	429.75	-0.0005083222	4.27751E-06
415	430	-0.0004954838	3.489053E-06
415	430.25	-0.0004933082	4.041754E-06
415	430.5	-0.0005022102	3.294097E-06
415	430.75	-0.0004988883	4.210207E-06
415	431	-0.0005021104	4.132453E-06
415	431.25	-0.0004987554	3.960916E-06
415	431.5	-0.0005090028	4.26884E-06
415	431.75	-0.0005021601	3.632899E-06
415	432	-0.0005013296	3.776057E-06
415	432.25	-0.0005066941	4.869936E-06
415	432.5	-0.0005103645	3.925095E-06
415	432.75	-0.0004983234	3.979153E-06
415	433	-0.0004921451	3.331278E-06
415	433.25	-0.000504917	3.316234E-06
415	433.5	-0.0004998347	4.309028E-06
415	433.75	-0.0005031398	4.541249E-06
415	434	-0.0004955332	4.138413E-06
415	434.25	-0.0005061291	4.199266E-06
415	434.5	-0.0005049169	3.608806E-06
415	434.75	-0.0004992202	3.198017E-06
415	435	-0.0005022428	2.959941E-06
500	480	-0.0006097236	4.548918E-06
500	480.25	-0.0006124241	3.949366E-06
500	480.5	-0.0006167679	4.321704E-06
500	480.75	-0.0006044169	3.653973E-06
500	481	-0.0006132691	4.270653E-06
500	481.25	-0.0006122125	3.412213E-06
500	481.5	-0.0005957055	5.645879E-06
500	481.75	-0.000612682	4.076931E-06
500	482	-0.000607211	4.789032E-06
500	482.25	-0.0006107095	3.889513E-06
500	482.5	-0.0006107331	4.277545E-06
500	482.75	-0.0006033131	4.969471E-06
500	483	-0.0006127288	3.975353E-06
500	483.25	-0.0006069995	3.579744E-06
500	483.5	-0.0006032425	3.108027E-06
500	483.75	-0.0006082674	4.30944E-06
500	484	-0.0006068819	4.809122E-06
500	484.25	-0.0006072341	3.138829E-06
500	484.5	-0.000613433	2.929682E-06
500	484.75	-0.0006078915	5.216829E-06
500	485	-0.0006065294	4.032286E-06
500	485.25	-0.0006088777	3.860362E-06
500	485.5	-0.0006050268	4.021579E-06
500	485.75	-0.0005988981	3.588142E-06
500	486	-0.0006067878	4.450301E-06
500	486.25	-0.0006003069	4.504512E-06
500	486.5	-0.0006000721	4.5562E-06
500	486.75	-0.0005938966	4.690457E-06
500	487	-0.0005941078	4.265747E-06
500	487.25	-0.0005824848	4.047516E-06
500	487.5	-0.0005837996	4.645469E-06
500	487.75	-0.000574689	5.405942E-06
500	488	-0.000563841	4.651162E-06
500	488.25	-0.0005413931	4.506322E-06
500	488.5	-0.0005277274	4.12355E-06
500	488.75	-0.0005020158	3.575604E-06
500	489	-0.0004799675	4.277294E-06
500	489.25	-0.0004349312	4.599001E-06
500	489.5	-0.000402152	4.885911E-06
500	489.75	-0.0003518796	4.629932E-06
500	490	-0.0002795354	4.352832E-06
500	490.25	-0.0002124977	4.274412E-06
500	490.5	-0.0001384394	4.495615E-06
500	490.75	-3.841132E-05	4.243528E-06
500	491	8.751633E-05	3.683919E-06
500	491.25	0.0002322288	4.145836E-06
500	491.5	0.0004277069	4.422734E-06
500	491.75	0.0006189818	4.766657E-06
500	492	0.0008108906	6.413206E-06
500	492.25	0.0009459291	4.865884E-06
500	492.5	0.0009925149	6.174788E-06
500	492.75	0.001020269	5.728738E-06
500	493	0.001019471	5.523265E-06
500	493.25	0.0009888515	5.732103E-06
500	493.5	0.0009688459	5.740225E-06
500	493.75	0.0009374522	5.143276E-06
500	494	0.0009080069	6.332901E-06
500	494.25	0.0008864748	6.809396E-06
500	494.5	0.0008691224	7.117739E-06
500	494.75	0.0008660465	6.327054E-06
500	495	0.0008607865	5.750568E-06
500	495.25	0.0008449841	6.067753E-06
500	495.5	0.0008569121	7.206701E-06
500	495.75	0.0008441619	6.271833E-06
500	496	0.0008611621	5.94063E-06
500	496.25	0.0008555029	5.453894E-06
500	496.5	0.0008508536	6.54953E-06
500	496.75	0.0008513705	7.121668E-06
500	497	0.0008483177	6.263781E-06
500	497.25	0.0008404046	4.907841E-06
500	497.5	0.0008372345	5.918395E-06
500	497.75	0.0008145755	6.056843E-06
500	498	0.0007966831	6.208937E-06
500	498.25	0.0007719578	5.055176E-06
500	498.5	0.0007399534	5.153845E-06
500	498.75	0.0007055306	5.561256E-06
500	499	0.0006631242	6.170596E-06
500	499.25	0.0006279969	5.082086E-06
500	499.5	0.0005723238	5.104341E-06
500	499.75	0.0004971851	5.854692E-06
500	500	0.0004111986	6.335741E-06
500	500.25	0.0003004867	4.298778E-06
500	500.5	0.0001851491	5.22554E-06
500	500.75	4.879626E-05	3.77589E-06
500	501	-7.609763E-05	4.293173E-06
500	501.25	-0.0002198698	4.722902E-06
500	501.5	-0.0003385176	4.529709E-06
500	501.75	-0.0004169665	4.024199E-06
500	502	-0.0004872207	5.234007E-06
500	502.25	-0.0005288988	5.059202E-06
500	502.5	-0.0005411792	4.33513E-06
500	502.75	-0.000566186	3.560769E-06
500	503	-0.0005777854	3.8802E-06
500	503.25	-0.0005927424	4.934554E-06
500	503.5	-0.000603027	3.347938E-06
500	503.75	-0.0006000919	3.94092E-06
500	504	-0.0006108461	2.807934E-06
500	504.25	-0.0006093197	4.573301E-06
500	504.5	-0.0006169039	4.392321E-06
500	504.75	-0.0006137575	4.711351E-06
500	505	-0.0006121372	4.362316E-06
500	505.25	-0.0006115267	5.0142E-06
500	505.5	-0.0006167629	3.173544E-06
500	505.75	-0.0006084742	3.655646E-06
500	506	-0.0006143209	4.23948E-06
500	506.25	-0.0006164339	6.105943E-06
500	506.5	-0.000607793	4.536566E-06
500	506.75	-0.0006154712	5.305106E-06
500	507	-0.0006174199	3.878947E-06
500	507.25	-0.0006123716	4.786335E-06
500	507.5	-0.000614884	4.471394E-06
500	507.75	-0.0006185705	5.11451E-06
500	508	-0.0006214821	3.254915E-06
500	508.25	-0.0006115498	5.32059E-06
500	508.5	-0.0006130996	3.874005E-06
500	508.75	-0.0006235953	4.377192E-06
500	509	-0.0006119255	3.575599E-06
500	509.25	-0.0006166919	5.381017E-06
500	509.5	-0.0006116436	4.059477E-06
500	509.75	-0.0006212705	3.83072E-06
500	510	-0.0006214115	4.533416E-06
500	510.25	-0.0006152126	4.497435E-06
500	510.5	-0.0006173962	3.899353E-06
500	510.75	-0.000617091	3.862846E-06
500	511	-0.0006128174	3.884687E-06
500	511.25	-0.0006116905	3.934594E-06
500	511.5	-0.0006167623	3.094464E-06
500	511.75	-0.0006210122	4.957923E-06
500	512	-0.0006194155	5.129915E-06
500	512.25	-0.000616316	5.029843E-06
500	512.5	-0.0006138976	5.110587E-06
500	512.75	-0.0006233133	4.980869E-06
500	513	-0.0006199789	4.144174E-06
500	513.25	-0.0006061724	5.266614E-06
500	513.5	-0.0006143672	4.013499E-06
500	513.75	-0.0006107981	4.450399E-06
500	514	-0.0006074873	4.378679E-06
500	514.25	-0.0006096241	4.980624E-06
500	514.5	-0.000614062	4.604542E-06
500	514.75	-0.0006192276	3.356391E-06
500	515	-0.0006149306	4.07257E-06
500	515.25	-0.0006149775	3.69642E-06
500	515.5	-0.0006171142	4.058693E-06
500	515.75	-0.0006115963	4.414208E-06
500	516	-0.0006182883	4.585883E-06
500	516.25	-0.0006247689	4.155761E-06
500	516.5	-0.0006081447	4.022716E-06
500	516.75	-0.000617302	3.97343E-06
500	517	-0.0006163159	4.078681E-06
500	517.25	-0.0006129346	3.619775E-06
500	517.5	-0.0006147662	4.893236E-06
500	517.75	-0.0006239235	5.193121E-06
500	518	-0.0006169967	4.305347E-06
500	518.25	-0.0006115963	5.246568E-06
500	518.5	-0.0006149069	4.809743E-06
500	518.75	-0.0006183584	4.740776E-06
500	519	-0.0006181941	4.02852E-06
500	519.25	-0.0006159633	4.18824E-06
500	519.5	-0.0006170201	5.293424E-06
500	519.75	-0.0006092479	4.359423E-06
500	520	-0.0006123473	4.643365E-06
500	520.25	-0.0006103514	3.639563E-06
500	520.5	-0.0006179356	3.03207E-06
500	520.75	-0.0006153058	4.100206E-06
500	521	-0.0006144136	5.758278E-06
500	521.25	-0.0006107975	4.832401E-06
500	521.5	-0.00061655	4.918749E-06
500	521.75	-0.0006149535	4.1343E-06
500	522	-0.00061972	4.752084E-06
500	522.25	-0.0006165735	4.94402E-06
500	522.5	-0.0006140142	4.652171E-06
500	522.75	-0.00061547	4.892865E-06
500	523	-0.000608637	4.969998E-06
500	523.25	-0.0006135445	3.202104E-06
500	523.5	-0.000620025	4.301751E-06
500	523.75	-0.0006201893	4.770212E-06
500	524	-0.0006169959	4.744505E-06
500	524.25	-0.0006207294	4.3489E-06
500	524.5	-0.000620236	5.032094E-06
500	524.75	-0.0006139902	3.003062E-06
615	590	-0.00044282	3.98458E-06
615	590.25	-0.0004379798	3.686176E-06
615	590.5	-0.0004344464	3.870786E-06
615	590.75	-0.0004448995	4.798183E-06
615	591	-0.0004366179	4.006988E-06
615	591.25	-0.0004445499	2.758569E-06
615	591.5	-0.000439728	4.090943E-06
615	591.75	-0.0004405194	3.691332E-06
615	592	-0.0004398016	3.648115E-06
615	592.25	-0.0004434824	3.499209E-06
615	592.5	-0.0004414947	3.513617E-06
615	592.75	-0.0004395991	4.55835E-06
615	593	-0.000437317	3.889592E-06
615	593.25	-0.0004346669	3.879974E-06
615	593.5	-0.0004427275	4.399973E-06
615	593.75	-0.0004372801	2.459751E-06
615	594	-0.0004366543	4.877361E-06
615	594.25	-0.0004346116	4.918866E-06
615	594.5	-0.0004356605	4.27363E-06
615	594.75	-0.0004435188	4.6427E-06
615	595	-0.0004321638	4.184996E-06
615	595.25	-0.000439562	4.184284E-06
615	595.5	-0.0004404086	2.880101E-06
615	595.75	-0.0004392123	4.338815E-06
615	596	-0.0004376111	3.702434E-06
615	596.25	-0.0004356603	4.009192E-06
615	596.5	-0.0004372429	3.352167E-06
615	596.75	-0.0004382735	4.852213E-06
615	597	-0.0004311881	3.577526E-06
615	597.25	-0.0004366908	4.429482E-06
615	597.5	-0.0004330654	4.329118E-06
615	597.75	-0.000436654	3.562652E-06
615	598	-0.0004404266	4.275417E-06
615	598.25	-0.0004347399	3.789028E-06
615	598.5	-0.0004415677	4.360085E-06
615	598.75	-0.0004314089	4.191443E-06
615	599	-0.0004311879	3.953057E-06
615	599.25	-0.0004317769	3.641207E-06
615	599.5	-0.0004256116	4.811142E-06
615	599.75	-0.0004283907	3.202402E-06
615	600	-0.0004264767	4.504913E-06
615	600.25	-0.0004291636	4.202949E-06
615	600.5	-0.0004279673	3.313887E-06
615	600.75	-0.0004328442	3.871835E-06
615	601	-0.0004364515	4.846603E-06
615	601.25	-0.000419796	3.992607E-06
615	601.5	-0.0004190047	3.325767E-06
615	601.75	-0.000411993	4.149399E-06
615	602	-0.0004121218	4.648341E-06
615	602.25	-0.0004044106	3.715503E-06
615	602.5	-0.0003968099	5.216607E-06
615	602.75	-0.0003888779	5.160464E-06
615	603	-0.0003859518	3.855154E-06
615	603.25	-0.0003738238	3.80404E-06
615	603.5	-0.0003715785	4.34761E-06
615	603.75	-0.0003629472	4.123506E-06
615	604	-0.0003471938	4.128082E-06
615	604.25	-0.0003284957	4.341884E-06
615	604.5	-0.0003015158	3.405336E-06
615	604.75	-0.0002782905	5.149448E-06
615	605	-0.0002417592	3.658635E-06
615	605.25	-0.0002031299	4.429954E-06
615	605.5	-0.000159458	3.544386E-06
615	605.75	-9.648077E-05	4.363357E-06
615	606	-3.039321E-05	4.421363E-06
615	606.25	5.345405E-05	3.810614E-06
615	606.5	0.0001563861	4.777884E-06
615	606.75	0.0002696058	4.640766E-06
615	607	0.0003884203	4.092213E-06
615	607.25	0.0005401039	3.875603E-06
615	607.5	0.0006918979	4.866296E-06
615	607.75	0.0008594638	5.373796E-06
615	608	0.001033214	5.443005E-06
615	608.25	0.001203172	6.527285E-06
615	608.5	0.001351745	6.250212E-06
615	608.75	0.001494871	5.524009E-06
615	609	0.001591748	6.947747E-06
615	609.25	0.001681227	7.063264E-06
615	609.5	0.001735132	5.834142E-06
615	609.75	0.001777681	6.981552E-06
615	610	0.001800263	7.369818E-06
615	610.25	0.001800005	5.777068E-06
615	610.5	0.001813808	5.768229E-06
615	610.75	0.001803869	5.693643E-06
615	611	0.001811691	6.118899E-06
615	611.25	0.001809206	6.824911E-06
615	611.5	0.001808912	7.077591E-06
615	611.75	0.001807771	5.737654E-06
615	612	0.001810955	6.238327E-06
615	612.25	0.001810477	5.858129E-06
615	612.5	0.001817396	6.155448E-06
615	612.75	0.001827039	6.584622E-06
615	613	0.001829763	6.921539E-06
615	613.25	0.00182588	6.577761E-06
615	613.5	0.001820304	5.365444E-06
615	613.75	0.001805452	7.021319E-06
615	614	0.0018065	6.007306E-06
615	614.25	0.001783054	7.035745E-06
615	614.5	0.001771479	5.81941E-06
615	614.75	0.001742401	6.545833E-06
615	615	0.001712403	6.443405E-06
615	615.25	0.001656529	6.861141E-06
615	615.5	0.001589778	5.237816E-06
615	615.75	0.001534144	5.809124E-06
615	616	0.001420335	6.240671E-06
615	616.25	0.001332016	5.708012E-06
615	616.5	0.0012116	4.783012E-06
615	616.75	0.001077474	5.087233E-06
615	617	0.0009273543	4.341836E-06
615	617.25	0.0007757445	5.312367E-06
615	617.5	0.000626472	4.626259E-06
615	617.75	0.0004824078	5.128166E-06
615	618	0.0003335586	4.063065E-06
615	618.25	0.0002037019	5.265483E-06
615	618.5	9.569051E-05	4.049737E-06
615	618.75	4.555377E-06	4.25087E-06
615	619	-8.118721E-05	3.852082E-06
615	619.25	-0.0001454528	4.878889E-06
615	619.5	-0.0002077858	3.677651E-06
615	619.75	-0.0002583038	4.27547E-06
615	620	-0.0002863325	4.500275E-06
615	620.25	-0.0003153735	4.360024E-06
615	620.5	-0.0003390406	3.496662E-06
615	620.75	-0.0003589716	4.397906E-06
615	621	-0.0003752221	3.423994E-06
615	621.25	-0.0003902394	4.128054E-06
615	621.5	-0.0004027722	4.500042E-06
615	621.75	-0.0004074099	4.121471E-06
615	622	-0.0004128574	4.107426E-06
615	622.25	-0.0004249117	4.155708E-06
615	622.5	-0.0004282243	3.998108E-06
615	622.75	-0.0004306537	3.766447E-06
615	623	-0.0004378494	3.733346E-06
615	623.25	-0.0004396345	3.689612E-06
615	623.5	-0.0004428	3.332581E-06
615	623.75	-0.0004374444	3.529187E-06
615	624	-0.0004393768	4.189419E-06
615	624.25	-0.0004473456	4.202814E-06
615	624.5	-0.000447732	4.214033E-06
615	624.75	-0.0004553696	3.715096E-06
615	625	-0.0004497748	3.967077E-06
615	625.25	-0.000450787	4.00496E-06
615	625.5	-0.0004594	3.803069E-06
615	625.75	-0.000452701	4.714353E-06
615	626	-0.000451063	4.366976E-06
615	626.25	-0.0004585901	4.136127E-06
615	626.5	-0.0004547621	3.733193E-06
615	626.75	-0.0004560136	3.454165E-06
615	627	-0.0004575963	3.809949E-06
615	627.25	-0.0004578355	3.706363E-06
615	627.5	-0.0004580747	4.092551E-06
615	627.75	-0.0004584244	2.967944E-06
615	628	-0.0004551852	4.050316E-06
615	628.25	-0.0004555351	4.556332E-06
615	628.5	-0.0004616817	3.036624E-06
615	628.75	-0.0004592709	3.901387E-06
615	629	-0.0004607432	4.293046E-06
615	629.25	-0.0004702948	4.534848E-06
615	629.5	-0.0004603568	2.896798E-06
615	629.75	-0.0004633014	3.772209E-06
615	630	-0.0004652154	3.399656E-06
615	630.25	-0.0004614611	3.957551E-06
615	630.5	-0.0004559216	3.850517E-06
615	630.75	-0.0004586269	4.516885E-06
615	631	-0.0004703316	3.777908E-06
615	631.25	-0.000456897	4.524438E-06
615	631.5	-0.0004650866	4.230093E-06
615	631.75	-0.0004640191	3.535225E-06
615	632	-0.0004677919	3.92332E-06
615	632.25	-0.0004593999	3.333125E-06
615	632.5	-0.0004586269	3.832652E-06
615	632.75	-0.0004706998	4.03355E-06
615	633	-0.0004666142	3.585145E-06
615	633.25	-0.0004584615	3.511116E-06
615	633.5	-0.0004567683	3.971148E-06
615	633.75	-0.0004638906	3.736246E-06
615	634	-0.0004725218	3.930813E-06
615	634.25	-0.0004629703	3.71231E-06
615	634.5	-0.0004623631	4.119954E-06
615	634.75	-0.0004660437	3.654307E-06
673	645	-0.0003592268	4.497413E-06
673	645.25	-0.0003538089	5.192329E-06
673	645.5	-0.0003676348	7.26174E-06
673	645.75	-0.0003620097	6.019913E-06
673	646	-0.0003594637	5.558779E-06
673	646.25	-0.0003569471	5.061543E-06
673	646.5	-0.0003540161	5.647418E-06
673	646.75	-0.0003451344	5.647608E-06
673	647	-0.0003470588	6.333398E-06
673	647.25	-0.0003603518	6.207003E-06
673	647.5	-0.0003552891	5.689672E-06
673	647.75	-0.0003445127	4.417362E-06
673	648	-0.0003568583	5.65761E-06
673	648.25	-0.0003545491	5.885222E-06
673	648.5	-0.0003562366	7.264775E-06
673	648.75	-0.000343743	5.183675E-06
673	649	-0.0003555853	7.887846E-06
673	649.25	-0.0003590195	5.811361E-06
673	649.5	-0.000340131	7.106899E-06
673	649.75	-0.0003547267	6.967541E-06
673	650	-0.0003503747	7.550909E-06
673	650.25	-0.0003418185	4.23688E-06
673	650.5	-0.0003393612	4.628359E-06
673	650.75	-0.0003368151	5.466754E-06
673	651	-0.0003509074	5.578665E-06
673	651.25	-0.0003518845	5.880074E-06
673	651.5	-0.0003508482	4.696913E-06
673	651.75	-0.0003513219	5.242467E-06
673	652	-0.0003438021	5.694279E-06
673	652.25	-0.0003493679	4.205477E-06
673	652.5	-0.0003432395	4.274848E-06
673	652.75	-0.0003511442	6.803533E-06
673	653	-0.0003569173	6.639198E-06
673	653.25	-0.0003359565	6.916776E-06
673	653.5	-0.0003524765	6.704896E-06
673	653.75	-0.0003442164	5.367049E-06
673	654	-0.0003395092	5.966998E-06
673	654.25	-0.0003438315	5.465979E-06
673	654.5	-0.0003485685	4.110968E-06
673	654.75	-0.0003499304	8.836126E-06
673	655	-0.0003400716	6.34136E-06
673	655.25	-0.000341167	7.410655E-06
673	655.5	-0.0003464369	5.392325E-06
673	655.75	-0.0003356308	4.663031E-06
673	656	-0.0003431802	4.774788E-06
673	656.25	-0.0003441868	4.316002E-06
673	656.5	-0.000335009	7.908139E-06
673	656.75	-0.0003338247	6.026399E-06
673	657	-0.0003446012	6.618851E-06
673	657.25	-0.0003417886	5.643319E-06
673	657.5	-0.0003485684	6.949127E-06
673	657.75	-0.0003423216	4.888375E-06
673	658	-0.000337851	4.647486E-06
673	658.25	-0.0003368148	4.457956E-06
673	658.5	-0.0003411372	7.363924E-06
673	658.75	-0.0003332325	4.432772E-06
673	659	-0.0003352753	4.847673E-06
673	659.25	-0.000327489	5.880753E-06
673	659.5	-0.0003288212	6.433953E-06
673	659.75	-0.0003256238	5.644582E-06
673	660	-0.0003217749	5.339343E-06
673	660.25	-0.0003253869	5.465706E-06
673	660.5	-0.0003089852	4.495209E-06
673	660.75	-0.0003122122	4.36817E-06
673	661	-0.0003119754	5.162363E-06
673	661.25	-0.0003080378	6.391542E-06
673	661.5	-0.0003094293	6.812286E-06
673	661.75	-0.0003076826	4.515909E-06
673	662	-0.0002881722	7.430693E-06
673	662.25	-0.0002930276	7.014334E-06
673	662.5	-0.0002845899	6.449566E-06
673	662.75	-0.0002541848	8.853362E-06
673	663	-0.0002566717	5.271047E-06
673	663.25	-0.0002360957	4.731582E-06
673	663.5	-0.0002279837	4.029987E-06
673	663.75	-0.0001980226	6.749688E-06
673	664	-0.0001659596	4.957614E-06
673	664.25	-0.0001336301	7.244679E-06
673	664.5	-9.493529E-05	7.105018E-06
673	664.75	-3.912838E-05	4.417562E-06
673	665	3.201442E-05	4.723473E-06
673	665.25	0.000100404	6.746571E-06
673	665.5	0.0002059195	4.628783E-06
673	665.75	0.0003412184	6.288918E-06
673	666	0.0004857248	6.941683E-06
673	666.25	0.0006815382	6.503172E-06
673	666.5	0.0008780028	7.394839E-06
673	666.75	0.001134775	5.65343E-06
673	667	0.001393826	1.020688E-05
673	667.25	0.001665105	7.916374E-06
673	667.5	0.0019397	1.06966E-05
673	667.75	0.002179301	9.890477E-06
673	668	0.00236268	1.173413E-05
673	668.25	0.002498393	1.017622E-05
673	668.5	0.002552424	9.084486E-06
673	668.75	0.002553786	9.706539E-06
673	669	0.002511568	9.624436E-06
673	669.25	0.002475479	1.114861E-05
673	669.5	0.00244679	9.371969E-06
673	669.75	0.00241005	1.161368E-05
673	670	0.002406438	9.810044E-06
673	670.25	0.002424883	1.21329E-05
673	670.5	0.002425031	1.133884E-05
673	670.75	0.002455376	1.01896E-05
673	671	0.002483621	8.933555E-06
673	671.25	0.002513316	8.732695E-06
673	671.5	0.002537208	9.395344E-06
673	671.75	0.002576791	1.022684E-05
673	672	0.002592393	1.212466E-05
673	672.25	0.002615338	1.01337E-05
673	672.5	0.002604413	9.434401E-06
673	672.75	0.00260163	1.029013E-05
673	673	0.002582386	1.119045E-05
673	673.25	0.002578596	1.21773E-05
673	673.5	0.002570929	8.794107E-06
673	673.75	0.00255435	1.000482E-05
673	674	0.002538481	9.416011E-06
673	674.25	0.002526787	9.488544E-06
673	674.5	0.002506478	1.022824E-05
673	674.75	0.002461921	7.635386E-06
673	675	0.002418607	1.133464E-05
673	675.25	0.002318539	1.152652E-05
673	675.5	0.002192417	9.149238E-06
673	675.75	0.002010163	8.892162E-06
673	676	0.001765441	1.015712E-05
673	676.25	0.001503784	8.827262E-06
673	676.5	0.001202159	6.756485E-06
673	676.75	0.0009110732	4.860151E-06
673	677	0.0006501861	5.323702E-06
673	677.25	0.0004105556	6.076514E-06
673	677.5	0.00022617	5.739204E-06
673	677.75	8.545311E-05	4.234832E-06
673	678	-3.30296E-05	6.567727E-06
673	678.25	-0.0001171693	5.433538E-06
673	678.5	-0.000166907	6.870813E-06
673	678.75	-0.0002164079	4.658171E-06
673	679	-0.0002564054	4.761842E-06
673	679.25	-0.0002775143	5.274246E-06
673	679.5	-0.000281067	6.489174E-06
673	679.75	-0.0003090741	3.344229E-06
673	680	-0.0003273408	5.358061E-06
673	680.25	-0.0003385614	5.341469E-06
673	680.5	-0.0003364891	5.270399E-06
673	680.75	-0.0003452227	3.779889E-06
673	681	-0.0003459628	7.703322E-06
673	681.25	-0.0003528609	6.408915E-06
673	681.5	-0.0003514399	4.265103E-06
673	681.75	-0.0003613578	5.974223E-06
673	682	-0.0003546966	6.911571E-06
673	682.25	-0.0003601439	4.871201E-06
673	682.5	-0.0003614763	6.458285E-06
673	682.75	-0.0003644664	4.036063E-06
673	683	-0.0003805719	7.450328E-06
673	683.25	-0.000377108	7.810165E-06
673	683.5	-0.0003680486	4.52155E-06
673	683.75	-0.0003662131	6.149256E-06
673	684	-0.0003697658	4.42014E-06
673	684.25	-0.0003666275	5.328749E-06
673	684.5	-0.0003825555	5.102957E-06
673	684.75	-0.0003653841	6.355033E-06
673	685	-0.0003741178	4.192083E-06
673	685.25	-0.0003705947	5.119225E-06
673	685.5	-0.0003735257	5.489958E-06
673	685.75	-0.0003727854	7.711747E-06
673	686	-0.0003724302	2.977432E-06
673	686.25	-0.0003766638	3.813319E-06
673	686.5	-0.0003845685	5.92771E-06
673	686.75	-0.0003797724	4.575426E-06
673	687	-0.0003748578	6.354121E-06
673	687.25	-0.0003816078	6.110418E-06
673	687.5	-0.0003725782	3.64349E-06
673	687.75	-0.000372134	5.83306E-06
673	688	-0.0003724301	4.475467E-06
673	688.25	-0.0003772558	7.715599E-06
673	688.5	-0.000377759	6.774627E-06
673	688.75	-0.0003855751	5.382051E-06
673	689	-0.0003721636	3.784404E-06
673	689.25	-0.0003772558	4.429042E-06
673	689.5	-0.0003742656	6.133001E-06
673	689.75	-0.00036568	5.456815E-06
673	690	-0.0003723708	3.707346E-06
673	690.25	-0.000374384	4.416422E-06
673	690.5	-0.0003838579	8.143318E-06
673	690.75	-0.0003751537	6.042141E-06
673	691	-0.0003778775	3.623247E-06
673	691.25	-0.0003801275	5.004266E-06
673	691.5	-0.0003632522	3.943208E-06
673	691.75	-0.0003708018	6.575826E-06
673	692	-0.00037243	5.754259E-06
673	692.25	-0.0003673379	5.113086E-06
673	692.5	-0.0003928283	6.111088E-06
673	692.75	-0.0003718083	5.704429E-06
673	693	-0.0003819631	5.134011E-06
673	693.25	-0.0003684036	4.785264E-06
673	693.5	-0.0003812231	7.771569E-06
673	693.75	-0.0003697063	4.095501E-06
673	694	-0.000376486	4.550637E-06
673	694.25	-0.0003732886	5.508351E-06
673	694.5	-0.0003767525	5.965477E-06
673	694.75	-0.0003706241	4.908205E-06
870	830	-0.0004816162	7.295525E-06
870	830.25	-0.0004792183	4.6153E-06
870	830.5	-0.0004789221	5.411566E-06
870	830.75	-0.0004708397	6.893216E-06
870	831	-0.0004676424	5.237143E-06
870	831.25	-0.000477205	5.358035E-06
870	831.5	-0.0004758432	5.659126E-06
870	831.75	-0.0004867677	5.657324E-06
870	832	-0.0004722315	4.967504E-06
870	832.25	-0.0004671984	5.527935E-06
870	832.5	-0.0004865606	5.125509E-06
870	832.75	-0.0004738892	6.693722E-06
870	833	-0.0004646819	5.261257E-06
870	833.25	-0.000462195	4.793145E-06
870	833.5	-0.0004655109	3.593692E-06
870	833.75	-0.0004475401	4.02697E-06
870	834	-0.000430428	4.357768E-06
870	834.25	-0.0004200661	5.771631E-06
870	834.5	-0.0003995788	4.046099E-06
870	834.75	-0.0003922958	5.720035E-06
870	835	-0.0004094376	6.012454E-06
870	835.25	-0.0004223161	5.607769E-06
870	835.5	-0.0004364381	5.532294E-06
870	835.75	-0.0004462375	5.884812E-06
870	836	-0.0004545272	5.486425E-06
870	836.25	-0.0004780342	4.473717E-06
870	836.5	-0.0004610998	5.575894E-06
870	836.75	-0.0004626689	4.906773E-06
870	837	-0.0004535503	4.508943E-06
870	837.25	-0.0004691524	5.029927E-06
870	837.5	-0.0004666359	5.082296E-06
870	837.75	-0.0004764651	5.093456E-06
870	838	-0.0004825934	4.281818E-06
870	838.25	-0.0004728236	5.5751E-06
870	838.5	-0.0004843106	4.392236E-06
870	838.75	-0.0004741263	5.118946E-06
870	839	-0.0004698927	5.504079E-06
870	839.25	-0.0004689156	7.244597E-06
870	839.5	-0.0004698927	4.26712E-06
870	839.75	-0.000464534	6.340492E-06
870	840	-0.000472557	5.09005E-06
870	840.25	-0.0004601226	4.904838E-06
870	840.5	-0.0004365564	5.724839E-06
870	840.75	-0.0004326485	5.016373E-06
870	841	-0.0004290661	5.130031E-06
870	841.25	-0.0004313162	4.287183E-06
870	841.5	-0.0004452015	4.783562E-06
870	841.75	-0.0004560371	6.927386E-06
870	842	-0.0004566883	4.768236E-06
870	842.25	-0.0004677905	5.528107E-06
870	842.5	-0.0004674944	5.494296E-06
870	842.75	-0.0004809651	4.124285E-06
870	843	-0.0004742445	3.288629E-06
870	843.25	-0.0004702181	5.093766E-06
870	843.5	-0.0004740373	6.041881E-06
870	843.75	-0.0004645043	4.551051E-06
870	844	-0.0004723497	5.797835E-06
870	844.25	-0.0004825341	7.921312E-06
870	844.5	-0.0004944948	4.978477E-06
870	844.75	-0.0004770273	6.092194E-06
870	845	-0.0004886624	6.025683E-06
870	845.25	-0.000477738	4.652459E-06
870	845.5	-0.0004753991	4.74369E-06
870	845.75	-0.0004852281	5.184899E-06
870	846	-0.0004788925	5.416069E-06
870	846.25	-0.0004763759	6.244629E-06
870	846.5	-0.0004737707	6.685585E-06
870	846.75	-0.0004719943	4.806631E-06
870	847	-0.0004818826	5.853985E-06
870	847.25	-0.0004717278	6.667329E-06
870	847.5	-0.0004743035	5.138185E-06
870	847.75	-0.0004653625	6.075978E-06
870	848	-0.0004730895	5.535536E-06
870	848.25	-0.000475162	6.374321E-06
870	848.5	-0.000472527	5.171533E-06
870	848.75	-0.0004656585	5.331436E-06
870	849	-0.0004733856	5.808904E-06
870	849.25	-0.0004817639	4.88397E-06
870	849.5	-0.0004760204	5.397489E-06
870	849.75	-0.0004756651	4.711536E-06
870	850	-0.0004712244	3.399181E-06
870	850.25	-0.0004682342	4.949831E-06
870	850.5	-0.0004753987	5.989322E-06
870	850.75	-0.0004818232	4.3472E-06
870	851	-0.0004761684	3.726895E-06
870	851.25	-0.0004694183	5.80364E-06
870	851.5	-0.0004751618	5.65037E-06
870	851.75	-0.0004694776	5.934411E-06
870	852	-0.0004586714	5.058946E-06
870	852.25	-0.0004605662	5.085127E-06
870	852.5	-0.0004699215	5.470104E-06
870	852.75	-0.0004626088	6.505074E-06
870	853	-0.0004712835	6.656059E-06
870	853.25	-0.0004664282	4.279691E-06
870	853.5	-0.0004621056	5.139467E-06
870	853.75	-0.0004691519	4.46783E-06
870	854	-0.000464415	6.707178E-06
870	854.25	-0.0004568062	5.115124E-06
870	854.5	-0.0004568358	5.257849E-06
870	854.75	-0.0004473916	5.139972E-06
870	855	-0.0004536385	5.40185E-06
870	855.25	-0.0004539345	5.474779E-06
870	855.5	-0.0004499675	6.796493E-06
870	855.75	-0.0004530168	5.123771E-06
870	856	-0.0004342764	4.538011E-06
870	856.25	-0.0004407896	5.400884E-06
870	856.5	-0.0004505299	4.463495E-06
870	856.75	-0.000437	6.312213E-06
870	857	-0.0004252762	5.323006E-06
870	857.25	-0.0004304275	3.745534E-06
870	857.5	-0.0004343059	5.006691E-06
870	857.75	-0.0004165129	5.699963E-06
870	858	-0.0004103845	4.439831E-06
870	858.25	-0.0003899566	6.515806E-06
870	858.5	-0.0003983054	6.102202E-06
870	858.75	-0.0003837394	6.302014E-06
870	859	-0.0003620088	4.748582E-06
870	859.25	-0.0003518837	5.069278E-06
870	859.5	-0.0003550219	6.517745E-06
870	859.75	-0.0003225148	3.174526E-06
870	860	-0.0003083632	5.470895E-06
870	860.25	-0.0002954551	6.223565E-06
870	860.5	-0.0002660566	6.752146E-06
870	860.75	-0.0002388192	5.502337E-06
870	861	-0.0002038253	4.398661E-06
870	861.25	-0.0001817098	5.757827E-06
870	861.5	-0.0001374491	4.8588E-06
870	861.75	-8.883645E-05	4.875482E-06
870	862	-3.812177E-05	6.594524E-06
870	862.25	1.845493E-05	5.300221E-06
870	862.5	8.58379E-05	4.941773E-06
870	862.75	0.0001542571	6.769567E-06
870	863	0.000232091	6.872109E-06
870	863.25	0.0003216784	5.39436E-06
870	863.5	0.0004138711	5.404757E-06
870	863.75	0.000530015	7.035948E-06
870	864	0.0006356783	5.99894E-06
870	864.25	0.0007512598	7.560654E-06
870	864.5	0.0008779138	5.196947E-06
870	864.75	0.0009892319	6.553499E-06
870	865	0.00109904	7.153499E-06
870	865.25	0.001206805	6.038927E-06
870	865.5	0.001291153	6.881453E-06
870	865.75	0.001336775	7.343465E-06
870	866	0.001392287	7.095537E-06
870	866.25	0.001408836	7.634801E-06
870	866.5	0.001421152	6.775791E-06
870	866.75	0.00144084	8.763691E-06
870	867	0.001452682	8.685253E-06
870	867.25	0.001483917	7.291396E-06
870	867.5	0.001486255	9.125901E-06
870	867.75	0.001499104	5.833049E-06
870	868	0.001516927	7.613196E-06
870	868.25	0.001543335	8.059144E-06
870	868.5	0.001555888	1.046224E-05
870	868.75	0.001564118	8.389667E-06
870	869	0.001592096	1.081997E-05
870	869.25	0.001613797	8.101807E-06
870	869.5	0.00163233	8.700734E-06
870	869.75	0.001644469	1.075699E-05
870	870	0.001666288	8.428598E-06
870	870.25	0.001697434	7.053658E-06
870	870.5	0.001709957	1.016535E-05
870	870.75	0.001727809	1.003799E-05
870	871	0.001746134	9.011873E-06
870	871.25	0.001732901	9.759454E-06
870	871.5	0.001733286	8.766821E-06
870	871.75	0.001739533	1.097145E-05
870	872	0.00171345	1.035559E-05
870	872.25	0.001675199	8.900015E-06
870	872.5	0.001632389	7.339997E-06
870	872.75	0.001564976	8.788766E-06
870	873	0.001480422	9.352047E-06
870	873.25	0.001380472	6.437729E-06
870	873.5	0.001270309	4.289172E-06
870	873.75	0.001115411	6.676878E-06
870	874	0.000941595	8.297523E-06
870	874.25	0.000776039	5.233213E-06
870	874.5	0.0005983744	6.467353E-06
870	874.75	0.0004233741	6.162034E-06
870	875	0.000261963	5.036848E-06
870	875.25	0.0001112692	4.780313E-06
870	875.5	1.250415E-05	6.067058E-06
870	875.75	-9.691869E-05	5.586362E-06
870	876	-0.0001662553	6.681827E-06
870	876.25	-0.0002249043	3.866396E-06
870	876.5	-0.0002718886	5.51149E-06
870	876.75	-0.0003228992	5.694993E-06
870	877	-0.0003465838	6.00467E-06
870	877.25	-0.0003737619	5.378459E-06
870	877.5	-0.0003929167	5.335389E-06
870	877.75	-0.0004003774	4.741069E-06
870	878	-0.0004008511	3.98956E-06
870	878.25	-0.0004289173	4.606669E-06
870	878.5	-0.0004340983	4.096216E-06
870	878.75	-0.0004373549	5.663192E-06
870	879	-0.0004342465	5.280705E-06
870	879.25	-0.0004448748	4.95121E-06
870	879.5	-0.0004542599	5.564769E-06
870	879.75	-0.0004433058	4.988704E-06
870	880	-0.0004379471	4.274872E-06
870	880.25	-0.0004430985	5.949928E-06
870	880.5	-0.0004494638	4.834156E-06
870	880.75	-0.0004339208	4.454995E-06
870	881	-0.0004367629	7.141796E-06
870	881.25	-0.0004246246	4.975293E-06
870	881.5	-0.0004134041	4.081533E-06
870	881.75	-0.0004195325	5.586136E-06
870	882	-0.0004240621	6.14926E-06
870	882.25	-0.00042498	5.345217E-06
870	882.5	-0.0004364966	5.67156E-06
870	882.75	-0.000442773	5.227968E-06
870	883	-0.0004610693	5.932662E-06
870	883.25	-0.000459293	4.862344E-06
870	883.5	-0.000460122	5.920442E-06
870	883.75	-0.0004663985	5.409175E-06
870	884	-0.0004691519	5.596797E-06
870	884.25	-0.0004726453	5.582363E-06
870	884.5	-0.0004867376	3.674107E-06
870	884.75	-0.0004741257	4.716067E-06
870	885	-0.0004887804	5.760547E-06
870	885.25	-0.0004900831	6.198249E-06
870	885.5	-0.0004948792	4.623626E-06
870	885.75	-0.0004936655	4.301902E-06
870	886	-0.0004854647	5.147734E-06
870	886.25	-0.0004890767	6.708522E-06
870	886.5	-0.000495353	4.739771E-06
870	886.75	-0.0004891654	6.243146E-06
870	887	-0.0004941095	4.090262E-06
870	887.25	-0.0004883069	5.677095E-06
870	887.5	-0.0004824153	5.1215E-06
870	887.75	-0.000494909	6.612667E-06
870	888	-0.0004956194	5.240073E-06
870	888.25	-0.000493399	5.326127E-06
870	888.5	-0.0004881292	5.619453E-06
870	888.75	-0.0004942281	4.96774E-06
870	889	-0.0004875963	5.865154E-06
870	889.25	-0.0004876556	5.578188E-06
870	889.5	-0.0004923628	7.169762E-06
870	889.75	-0.0004925405	4.407192E-06
870	890	-0.0004864714	3.499416E-06
870	890.25	-0.0005000603	5.30767E-06
870	890.5	-0.0004833923	6.708241E-06
870	890.75	-0.0004955603	4.731377E-06
870	891	-0.0004959747	5.278239E-06
870	891.25	-0.0004878923	4.322615E-06
870	891.5	-0.0004964483	5.271229E-06
870	891.75	-0.0004954122	4.943121E-06
870	892	-0.0004921556	5.036816E-06
870	892.25	-0.0004919186	3.64587E-06
870	892.5	-0.0004852574	3.969058E-06
870	892.75	-0.0005017775	5.038382E-06
870	893	-0.0004862641	4.616902E-06
870	893.25	-0.0005023992	4.720111E-06
870	893.5	-0.0004953233	4.723452E-06
870	893.75	-0.0004912376	4.586641E-06
870	894	-0.0004841915	5.120978E-06
870	894.25	-0.0004992016	5.501841E-06
870	894.5	-0.0004845763	6.031452E-06
870	894.75	-0.000500149	6.183234E-06
870	895	-0.000492185	5.464209E-06
870	895.25	-0.0004913561	7.208946E-06
870	895.5	-0.0004851389	6.25818E-06
870	895.75	-0.0004865896	5.150139E-06
870	896	-0.0004918297	3.968153E-06
870	896.25	-0.0004896389	5.23897E-06
870	896.5	-0.0004987575	4.935812E-06
870	896.75	-0.0004893428	4.992409E-06
870	897	-0.0004865302	5.337414E-06
870	897.25	-0.0005004449	4.345191E-06
870	897.5	-0.0004972475	4.719281E-06
870	897.75	-0.0005015106	5.176349E-06
870	898	-0.0004928362	4.728659E-06
870	898.25	-0.000493902	4.765813E-06
870	898.5	-0.0004915928	6.064237E-06
870	898.75	-0.0004909414	5.316689E-06
870	899	-0.000487507	4.293638E-06
870	899.25	-0.0004933394	5.614688E-06
870	899.5	-0.0004921847	5.063107E-06
870	899.75	-0.0004904972	3.610089E-06
940	900	-0.0006314203	4.337314E-06
940	900.25	-0.0006370159	5.58999E-06
940	900.5	-0.0006514634	4.008806E-06
940	900.75	-0.0006433515	4.250636E-06
940	901	-0.0006519667	4.099967E-06
940	901.25	-0.0006386146	4.874608E-06
940	901.5	-0.0006495983	5.660932E-06
940	901.75	-0.0006437066	5.349735E-06
940	902	-0.0006425226	4.699093E-06
940	902.25	-0.0006390881	5.043315E-06
940	902.5	-0.000638733	5.406363E-06
940	902.75	-0.0006214728	6.049203E-06
940	903	-0.0006161735	6.255864E-06
940	903.25	-0.0006162327	5.394538E-06
940	903.5	-0.0005837551	5.0401E-06
940	903.75	-0.0005528763	5.239125E-06
940	904	-0.0004999117	6.916729E-06
940	904.25	-0.0004101768	5.786716E-06
940	904.5	-0.0002949809	5.123244E-06
940	904.75	-0.0002215883	4.930558E-06
940	905	-0.0002169107	5.047313E-06
940	905.25	-0.0002770103	5.897001E-06
940	905.5	-0.0003787059	5.603749E-06
940	905.75	-0.0004492268	5.771529E-06
940	906	-0.0004937537	4.431572E-06
940	906.25	-0.0005414191	3.686597E-06
940	906.5	-0.0005597155	4.152322E-06
940	906.75	-0.0005829264	4.237589E-06
940	907	-0.0005946502	4.145244E-06
940	907.25	-0.0006025253	4.751621E-06
940	907.5	-0.000613361	3.368081E-06
940	907.75	-0.0006214732	4.855259E-06
940	908	-0.0006220949	5.152806E-06
940	908.25	-0.000631006	5.226633E-06
940	908.5	-0.0006414867	5.661963E-06
940	908.75	-0.0006315393	5.132758E-06
940	909	-0.0006368386	5.701665E-06
940	909.25	-0.0006320128	5.847653E-06
940	909.5	-0.0006318354	7.299478E-06
940	909.75	-0.0006330787	4.785685E-06
940	910	-0.0006437073	5.012099E-06
940	910.25	-0.000639533	4.820434E-06
940	910.5	-0.0006405395	3.499916E-06
940	910.75	-0.0006384671	4.11639E-06
940	911	-0.0006387631	4.668688E-06
940	911.25	-0.0006265656	6.770926E-06
940	911.5	-0.0006457798	4.824928E-06
940	911.75	-0.0006167662	6.090719E-06
940	912	-0.0006267729	3.608293E-06
940	912.25	-0.0006189569	5.273428E-06
940	912.5	-0.0006125028	5.289299E-06
940	912.75	-0.0006074106	4.905726E-06
940	913	-0.0006014304	5.337424E-06
940	913.25	-0.0005845848	5.091392E-06
940	913.5	-0.0005803214	6.063221E-06
940	913.75	-0.0005710251	6.431562E-06
940	914	-0.0005567848	5.4316E-06
940	914.25	-0.00053011	4.651213E-06
940	914.5	-0.0005129685	5.774302E-06
940	914.75	-0.0004838363	5.254742E-06
940	915	-0.0004274965	5.092165E-06
940	915.25	-0.0003794464	4.164779E-06
940	915.5	-0.0002867508	4.878804E-06
940	915.75	-0.0001769431	6.287017E-06
940	916	-5.65069E-05	4.814148E-06
940	916.25	5.161346E-05	5.563653E-06
940	916.5	0.0001412896	4.089966E-06
940	916.75	0.0001419113	4.939454E-06
940	917	9.551894E-05	5.791683E-06
940	917.25	1.072781E-05	6.315803E-06
940	917.5	-7.607627E-05	6.577806E-06
940	917.75	-0.0001641238	4.169654E-06
940	918	-0.0002421645	6.472051E-06
940	918.25	-0.0002933528	5.581019E-06
940	918.5	-0.0003387976	5.857381E-06
940	918.75	-0.0003743246	4.270883E-06
940	919	-0.0004096738	6.019894E-06
940	919.25	-0.0004174896	5.496507E-06
940	919.5	-0.0004370294	5.16719E-06
940	919.75	-0.0004575463	3.576919E-06
940	920	-0.0004687964	5.656281E-06
940	920.25	-0.0004735334	4.213444E-06
940	920.5	-0.0004888394	6.191378E-06
940	920.75	-0.0005013331	4.977087E-06
940	921	-0.0004867965	5.273855E-06
940	921.25	-0.0004912078	5.387518E-06
940	921.5	-0.0004820004	6.884479E-06
940	921.75	-0.0004927768	4.353121E-06
940	922	-0.0004917406	4.224631E-06
940	922.25	-0.0004989645	4.425761E-06
940	922.5	-0.000500652	6.116484E-06
940	922.75	-0.0005137673	6.234295E-06
940	923	-0.000518889	4.296716E-06
940	923.25	-0.0005149811	6.63965E-06
940	923.5	-0.00051957	4.719313E-06
940	923.75	-0.0005247805	5.976051E-06
940	924	-0.0005268529	5.64016E-06
940	924.25	-0.0005261719	5.651358E-06
940	924.5	-0.0005432842	5.086196E-06
940	924.75	-0.0005299023	4.640867E-06
940	925	-0.0005365931	5.111721E-06
940	925.25	-0.0005330108	5.876153E-06
940	925.5	-0.0005378957	6.521607E-06
940	925.75	-0.0005375997	5.11437E-06
940	926	-0.000524958	5.517353E-06
940	926.25	-0.0005273266	5.21998E-06
940	926.5	-0.000528718	5.939343E-06
940	926.75	-0.0005278297	5.683469E-06
940	927	-0.0005159578	5.974361E-06
940	927.25	-0.0005114283	4.141127E-06
940	927.5	-0.0005049149	4.493077E-06
940	927.75	-0.0004912075	5.279794E-06
940	928	-0.0004937831	4.968974E-06
940	928.25	-0.0004629933	4.735703E-06
940	928.5	-0.0004624307	5.434637E-06
940	928.75	-0.0004422101	5.051185E-06
940	929	-0.0004124563	5.083357E-06
940	929.25	-0.0003864329	4.481642E-06
940	929.5	-0.0003589291	4.837111E-06
940	929.75	-0.0003061126	6.160835E-06
940	930	-0.0002765957	5.58237E-06
940	930.25	-0.0002182132	4.806191E-06
940	930.5	-0.0001480773	7.187867E-06
940	930.75	-7.826702E-05	7.586182E-06
940	931	-2.150718E-06	4.950507E-06
940	931.25	7.962051E-05	6.876603E-06
940	931.5	0.0001546121	6.597766E-06
940	931.75	0.0002680025	4.50644E-06
940	932	0.0003776625	5.633807E-06
940	932.25	0.0005102966	6.440694E-06
940	932.5	0.0006475492	6.264116E-06
940	932.75	0.0008121873	7.791941E-06
940	933	0.001001546	6.917284E-06
940	933.25	0.001200201	7.496508E-06
940	933.5	0.001421861	1.082757E-05
940	933.75	0.001662497	9.295332E-06
940	934	0.00191687	1.049466E-05
940	934.25	0.002175596	1.078284E-05
940	934.5	0.002464579	1.356352E-05
940	934.75	0.002784914	1.381506E-05
940	935	0.003112207	1.387205E-05
940	935.25	0.003409953	1.49185E-05
940	935.5	0.003730081	1.834586E-05
940	935.75	0.004077238	1.695653E-05
940	936	0.004448704	1.657702E-05
940	936.25	0.004905908	2.042429E-05
940	936.5	0.005398962	1.847044E-05
940	936.75	0.00598886	1.76641E-05
940	937	0.006766812	1.758762E-05
940	937.25	0.007688236	1.6051E-05
940	937.5	0.008673668	1.438893E-05
940	937.75	0.009452125	1.227516E-05
940	938	0.009986093	1.459198E-05
940	938.25	0.01020601	1.514136E-05
940	938.5	0.01019653	1.805196E-05
940	938.75	0.009987488	2.005523E-05
940	939	0.009700368	2.36946E-05
940	939.25	0.009326564	2.437189E-05
940	939.5	0.008963653	2.306479E-05
940	939.75	0.008596811	2.308777E-05
940	940	0.008253146	2.356347E-05
940	940.25	0.007939944	2.453299E-05
940	940.5	0.007611084	2.158523E-05
940	940.75	0.00730108	2.45787E-05
940	941	0.006974528	2.168021E-05
940	941.25	0.006671216	1.989125E-05
940	941.5	0.006309077	2.317982E-05
940	941.75	0.005957744	1.800952E-05
940	942	0.005566711	1.83265E-05
940	942.25	0.005220884	2.02368E-05
940	942.5	0.004819842	1.766704E-05
940	942.75	0.004434138	1.636834E-05
940	943	0.00406137	1.577533E-05
940	943.25	0.003725225	1.602257E-05
940	943.5	0.003341801	1.350194E-05
940	943.75	0.002985169	1.312273E-05
940	944	0.002607249	1.059504E-05
940	944.25	0.002273118	8.168162E-06
940	944.5	0.001936114	6.929121E-06
940	944.75	0.00158564	7.54375E-06
940	945	0.001268858	7.835833E-06
940	945.25	0.0009467754	5.418081E-06
940	945.5	0.0006737506	5.478441E-06
940	945.75	0.0004224858	6.036298E-06
940	946	0.0002275314	5.981246E-06
940	946.25	4.287972E-05	5.265044E-06
940	946.5	-8.741523E-05	4.894502E-06
940	946.75	-0.0002172955	6.097041E-06
940	947	-0.000281836	4.593919E-06
940	947.25	-0.0003658274	6.02212E-06
940	947.5	-0.0004266967	4.654633E-06
940	947.75	-0.0004729113	5.83886E-06
940	948	-0.0005061288	7.05023E-06
940	948.25	-0.000534195	5.937833E-06
940	948.5	-0.0005640376	4.23564E-06
940	948.75	-0.0005684785	6.058699E-06
940	949	-0.0005963374	3.509052E-06
940	949.25	-0.0005978769	4.412245E-06
940	949.5	-0.0006079724	4.557103E-06
940	949.75	-0.0006222423	5.455643E-06
940	950	-0.0006210285	5.57377E-06
940	950.25	-0.000632249	5.943076E-06
940	950.5	-0.0006374595	6.1292E-06
940	950.75	-0.0006401241	4.947133E-06
940	951	-0.0006515814	4.725477E-06
940	951.25	-0.000652736	5.397044E-06
940	951.5	-0.000664075	4.875708E-06
940	951.75	-0.0006654073	5.940232E-06
940	952	-0.0006572953	7.166248E-06
940	952.25	-0.0006832298	4.247163E-06
940	952.5	-0.0006647263	4.983617E-06
940	952.75	-0.0006814241	4.586019E-06
940	953	-0.0006877596	5.152606E-06
940	953.25	-0.0006870491	3.571207E-06
940	953.5	-0.0006847694	5.853808E-06
940	953.75	-0.0006910753	4.344176E-06
940	954	-0.000694184	4.469721E-06
940	954.25	-0.0006922596	5.132501E-06
940	954.5	-0.0007088684	4.877618E-06
940	954.75	-0.0006869897	5.337235E-06
940	955	-0.000691253	5.898198E-06
940	955.25	-0.0006971148	4.328832E-06
940	955.5	-0.0007093125	4.597592E-06
940	955.75	-0.0007040428	5.369551E-06
940	956	-0.0006998684	4.386851E-06
940	956.25	-0.0007014671	6.634616E-06
940	956.5	-0.00070425	3.772967E-06
940	956.75	-0.0007056712	5.015747E-06
940	957	-0.0006936216	5.901981E-06
940	957.25	-0.0006973815	4.879278E-06
940	957.5	-0.0007027104	3.855009E-06
940	957.75	-0.0007130725	4.554566E-06
940	958	-0.0007101418	4.989396E-06
940	958.25	-0.0007060856	3.679455E-06
940	958.5	-0.0006932369	3.740484E-06
940	958.75	-0.0006974706	5.154433E-06
940	959	-0.000702237	7.252806E-06
940	959.25	-0.0007067965	3.50987E-06
940	959.5	-0.00070351	5.160751E-06
940	959.75	-0.0007057305	6.083203E-06
940	960	-0.0007056121	5.705997E-06
940	960.25	-0.000700816	5.210499E-06
940	960.5	-0.0007022371	6.003288E-06
940	960.75	-0.0007042208	3.615084E-06
940	961	-0.0007096387	4.307117E-06
940	961.25	-0.0007080102	6.795416E-06
940	961.5	-0.0006881153	6.599462E-06
940	961.75	-0.0007062341	5.151156E-06
940	962	-0.0007106451	6.39026E-06
940	962.25	-0.0007001056	5.085451E-06
940	962.5	-0.0006996319	4.746721E-06
940	962.75	-0.0007053458	6.189919E-06
940	963	-0.0006978261	6.636313E-06
940	963.25	-0.0007058788	5.439849E-06
940	963.5	-0.0007017931	5.943756E-06
940	963.75	-0.0006969674	5.522731E-06
940	964	-0.000697086	6.289674E-06
940	964.25	-0.0007039544	5.021125E-06
940	964.5	-0.0006973819	3.966665E-06
940	964.75	-0.0007113558	4.042721E-06
940	965	-0.0007030661	4.168944E-06
940	965.25	-0.0006992767	3.921065E-06
940	965.5	-0.0007030068	4.680181E-06
940	965.75	-0.000697589	5.240523E-06
940	966	-0.0007084249	5.986436E-06
940	966.25	-0.0007004311	5.886124E-06
940	966.5	-0.0006978851	7.007668E-06
940	966.75	-0.00070502	5.217467E-06
940	967	-0.0006908982	4.575408E-06
940	967.25	-0.0007018228	6.122831E-06
940	967.5	-0.0007009937	5.113615E-06
940	967.75	-0.0006991878	6.34564E-06
940	968	-0.0006954869	5.094123E-06
940	968.25	-0.0007132208	5.507835E-06
940	968.5	-0.0007001054	4.156845E-06
940	968.75	-0.000704931	5.661014E-06
940	969	-0.0006930001	5.842066E-06
940	969.25	-0.0007038061	4.339599E-06
940	969.5	-0.0007010233	4.823172E-06
940	969.75	-0.0007022962	5.254219E-06
