Header:
MFRSR SPECTRAL RESPONSE TEST:

Instrument Data:
Serial_number	Vis469
Instrument_rev	Yes_Mk1
Owner	JAMSTEC(Japan)//M Reynolds

Test_Conditions_Data:
Testing_agency	DOE-ARM_SRMS
Test_System_rev	D
Test_date	5/3/2018
Test_day	123	[Day_of_year]
Test_conductor	Craig Webb
Source_Type	175 watt Xenon_ARC
Monochromator_slit	85	microns
Wavelength_registration_line	361.1652	[nm]
Wavelength_registration_position	431915	[steps]

Comment:	Calibrate once every two years

Channel	Wavelength	Signal	900	390	-6.02383E-05	2.653539E-06
900	390.25	-5.346487E-05	2.978605E-06
900	390.5	-5.421746E-05	4.667713E-06
900	390.75	-5.62244E-05	4.172642E-06
900	391	-5.66186E-05	3.98901E-06
900	391.25	-5.235384E-05	2.85971E-06
900	391.5	-6.02741E-05	3.923067E-06
900	391.75	-5.49342E-05	2.633293E-06
900	392	-5.884057E-05	3.623979E-06
900	392.25	-6.203015E-05	3.109036E-06
900	392.5	-5.414573E-05	3.276821E-06
900	392.75	-4.590294E-05	4.349965E-06
900	393	-4.83041E-05	2.472637E-06
900	393.25	-6.102668E-05	3.097861E-06
900	393.5	-6.289024E-05	3.777719E-06
900	393.75	-5.934228E-05	3.129714E-06
900	394	-4.905668E-05	4.978578E-06
900	394.25	-5.511335E-05	3.23216E-06
900	394.5	-5.389485E-05	3.341316E-06
900	394.75	-5.203125E-05	4.370485E-06
900	395	-5.317808E-05	3.953303E-06
900	395.25	-6.622319E-05	3.308287E-06
900	395.5	-6.084745E-05	3.29835E-06
900	395.75	-5.21746E-05	4.069038E-06
900	396	-6.253184E-05	4.439924E-06
900	396.25	-5.970062E-05	5.251343E-06
900	396.5	-4.687053E-05	3.596046E-06
900	396.75	-4.561619E-05	2.776736E-06
900	397	-5.027516E-05	3.921734E-06
900	397.25	-5.593759E-05	5.11642E-06
900	397.5	-5.410985E-05	4.216151E-06
900	397.75	-6.002313E-05	3.872775E-06
900	398	-5.303468E-05	4.971704E-06
900	398.25	-4.826819E-05	4.087895E-06
900	398.5	-5.6726E-05	3.812948E-06
900	398.75	-5.24971E-05	5.719572E-06
900	399	-5.586588E-05	3.868497E-06
900	399.25	-5.726357E-05	3.532401E-06
900	399.5	-4.762311E-05	4.438587E-06
900	399.75	-5.550749E-05	3.903311E-06
900	400	-5.303467E-05	3.751712E-06
900	400.25	-5.281963E-05	2.331167E-06
900	400.5	-5.15653E-05	3.251196E-06
900	400.75	-5.009592E-05	3.622337E-06
900	401	-6.113408E-05	4.716532E-06
900	401.25	-5.561499E-05	3.251612E-06
900	401.5	-5.285546E-05	3.827646E-06
900	401.75	-5.6941E-05	4.174614E-06
900	402	-5.604504E-05	4.704033E-06
900	402.25	-6.013058E-05	3.010667E-06
900	402.5	-6.378607E-05	3.36351E-06
900	402.75	-4.830397E-05	4.548107E-06
900	403	-5.586583E-05	3.201565E-06
900	403.25	-6.281843E-05	3.173584E-06
900	403.5	-5.314213E-05	3.676592E-06
900	403.75	-5.679761E-05	3.50724E-06
900	404	-5.299877E-05	3.445479E-06
900	404.25	-5.382303E-05	3.12007E-06
900	404.5	-4.991668E-05	4.098106E-06
900	404.75	-5.020338E-05	4.18954E-06
900	405	-5.37872E-05	2.802489E-06
900	405.25	-5.414556E-05	4.367829E-06
900	405.5	-5.174441E-05	4.327143E-06
900	405.75	-5.002417E-05	3.207308E-06
900	406	-5.084845E-05	4.320805E-06
900	406.25	-5.371551E-05	2.590558E-06
900	406.5	-5.35363E-05	3.111825E-06
900	406.75	-5.37155E-05	4.276869E-06
900	407	-5.665422E-05	3.463056E-06
900	407.25	-5.468311E-05	3.320721E-06
900	407.5	-5.45756E-05	3.684033E-06
900	407.75	-5.776519E-05	3.558899E-06
900	408	-5.48623E-05	3.36304E-06
900	408.25	-5.453975E-05	3.377394E-06
900	408.5	-5.93779E-05	3.699649E-06
900	408.75	-5.34646E-05	2.854479E-06
900	409	-4.35016E-05	4.018649E-06
900	409.25	-5.446805E-05	3.592025E-06
900	409.5	-4.880564E-05	2.817341E-06
900	409.75	-5.314204E-05	4.019394E-06
900	410	-6.120561E-05	4.094512E-06
900	410.25	-5.059752E-05	3.577394E-06
900	410.5	-4.70854E-05	3.994767E-06
900	410.75	-4.898482E-05	3.319473E-06
900	411	-4.891312E-05	3.774096E-06
900	411.25	-5.27478E-05	3.434293E-06
900	411.5	-5.776513E-05	3.993657E-06
900	411.75	-5.353623E-05	3.873758E-06
900	412	-4.762294E-05	4.603503E-06
900	412.25	-5.335702E-05	3.478387E-06
900	412.5	-4.651195E-05	3.01561E-06
900	412.75	-4.726455E-05	2.88449E-06
900	413	-5.393043E-05	3.010257E-06
900	413.25	-6.518359E-05	5.030328E-06
900	413.5	-5.772925E-05	4.679001E-06
900	413.75	-5.296278E-05	3.502875E-06
900	414	-4.522176E-05	3.826311E-06
900	414.25	-4.407495E-05	3.692811E-06
900	414.5	-5.34645E-05	3.34113E-06
900	414.75	-5.264023E-05	3.496901E-06
900	415	-5.403792E-05	2.850773E-06
900	415.25	-4.977318E-05	3.298595E-06
900	415.5	-5.57223E-05	3.248198E-06
900	415.75	-5.167259E-05	3.464635E-06
900	416	-4.887721E-05	4.131837E-06
900	416.25	-4.99882E-05	2.676282E-06
900	416.5	-5.174426E-05	4.01882E-06
900	416.75	-5.317778E-05	4.422367E-06
900	417	-5.704829E-05	4.11935E-06
900	417.25	-4.912806E-05	3.56508E-06
900	417.5	-4.529339E-05	3.155829E-06
900	417.75	-5.099164E-05	4.284141E-06
900	418	-5.178007E-05	3.275234E-06
900	418.25	-4.500668E-05	4.726155E-06
900	418.5	-4.988065E-05	2.850395E-06
900	418.75	-4.518586E-05	3.401133E-06
900	419	-4.515002E-05	3.489135E-06
900	419.25	-4.970144E-05	4.342453E-06
900	419.5	-4.730029E-05	2.339649E-06
900	419.75	-5.486213E-05	2.824468E-06
900	420	-5.084825E-05	3.046232E-06
900	420.25	-4.561591E-05	3.683693E-06
900	420.5	-5.0239E-05	3.684332E-06
900	420.75	-4.812457E-05	2.153498E-06
900	421	-4.93072E-05	3.058317E-06
900	421.25	-5.357193E-05	4.413608E-06
900	421.5	-4.948639E-05	2.738763E-06
900	421.75	-5.016732E-05	3.456134E-06
900	422	-5.038233E-05	3.637023E-06
900	422.25	-5.496961E-05	3.454565E-06
900	422.5	-5.285516E-05	3.59267E-06
900	422.75	-4.454075E-05	4.024545E-06
900	423	-5.160083E-05	3.500159E-06
900	423.25	-4.837541E-05	3.606961E-06
900	423.5	-5.711989E-05	4.505323E-06
900	423.75	-5.489792E-05	4.061676E-06
900	424	-5.443203E-05	3.968663E-06
900	424.25	-5.1565E-05	3.722422E-06
900	424.5	-4.049105E-05	2.740482E-06
900	424.75	-5.550717E-05	3.04698E-06
900	425	-5.217425E-05	4.607459E-06
900	425.25	-4.998813E-05	2.92045E-06
900	425.5	-5.267597E-05	3.912385E-06
900	425.75	-4.740778E-05	2.55273E-06
900	426	-5.400198E-05	3.804029E-06
900	426.25	-4.783786E-05	3.104468E-06
900	426.5	-4.511417E-05	3.930091E-06
900	426.75	-4.522169E-05	4.462854E-06
900	427	-5.109912E-05	3.027435E-06
900	427.25	-5.178005E-05	4.856696E-06
900	427.5	-4.310725E-05	4.29736E-06
900	427.75	-4.658354E-05	4.093352E-06
900	428	-4.948639E-05	3.570737E-06
900	428.25	-4.737196E-05	1.852902E-06
900	428.5	-4.35373E-05	2.558845E-06
900	428.75	-4.794539E-05	3.214787E-06
900	429	-4.995231E-05	3.892933E-06
900	429.25	-4.235465E-05	3.258525E-06
900	429.5	-4.830377E-05	2.808406E-06
900	429.75	-4.916388E-05	1.990329E-06
900	430	-4.346562E-05	4.653687E-06
900	430.25	-4.407488E-05	3.935916E-06
900	430.5	-4.486332E-05	3.532446E-06
900	430.75	-5.074076E-05	3.542411E-06
900	431	-4.672689E-05	2.984614E-06
900	431.25	-4.522171E-05	3.215631E-06
900	431.5	-5.181589E-05	2.846311E-06
900	431.75	-4.590262E-05	2.413094E-06
900	432	-5.421704E-05	4.23393E-06
900	432.25	-5.117081E-05	3.786019E-06
900	432.5	-3.930842E-05	4.012331E-06
900	432.75	-4.346562E-05	3.323289E-06
900	433	-4.371651E-05	3.348402E-06
900	433.25	-5.217427E-05	4.408369E-06
900	433.5	-4.722862E-05	2.937431E-06
900	433.75	-5.170839E-05	4.323136E-06
900	434	-4.862631E-05	3.378462E-06
900	434.25	-4.952224E-05	3.150373E-06
900	434.5	-4.959394E-05	2.343916E-06
900	434.75	-5.052571E-05	3.490341E-06
900	435	-5.048988E-05	4.348035E-06
900	480	-4.235464E-05	2.842547E-06
900	480.25	-3.622635E-05	3.882729E-06
900	480.5	-4.145869E-05	3.308915E-06
900	480.75	-3.816159E-05	4.358247E-06
900	481	-4.034771E-05	2.781548E-06
900	481.25	-3.28934E-05	3.78939E-06
900	481.5	-3.554541E-05	3.254777E-06
900	481.75	-3.805407E-05	3.879951E-06
900	482	-3.626216E-05	4.372907E-06
900	482.25	-3.378936E-05	4.33706E-06
900	482.5	-3.174659E-05	3.895389E-06
900	482.75	-3.572461E-05	3.767844E-06
900	483	-2.923792E-05	3.294456E-06
900	483.25	-3.11015E-05	3.5991E-06
900	483.5	-4.464827E-05	4.052285E-06
900	483.75	-4.099279E-05	3.831057E-06
900	484	-2.991885E-05	2.884608E-06
900	484.25	-3.124484E-05	2.504334E-06
900	484.5	-3.984598E-05	3.174246E-06
900	484.75	-3.905752E-05	3.558144E-06
900	485	-3.181825E-05	2.754066E-06
900	485.25	-4.65835E-05	5.110321E-06
900	485.5	-4.016851E-05	3.326292E-06
900	485.75	-3.762401E-05	2.834175E-06
900	486	-3.321592E-05	3.710363E-06
900	486.25	-3.755232E-05	3.970244E-06
900	486.5	-3.830492E-05	3.882542E-06
900	486.75	-3.99893E-05	4.097251E-06
900	487	-3.690724E-05	3.955372E-06
900	487.25	-3.730145E-05	2.615165E-06
900	487.5	-3.153153E-05	3.527774E-06
900	487.75	-4.307137E-05	3.376811E-06
900	488	-3.977426E-05	3.10189E-06
900	488.25	-4.511413E-05	4.013376E-06
900	488.5	-4.493495E-05	3.762345E-06
900	488.75	-4.099275E-05	3.354869E-06
900	489	-3.53662E-05	4.175088E-06
900	489.25	-4.615342E-05	4.014335E-06
900	489.5	-4.170951E-05	3.082553E-06
900	489.75	-4.156616E-05	4.601257E-06
900	490	-3.808987E-05	2.715134E-06
900	490.25	-4.11361E-05	3.178309E-06
900	490.5	-4.342974E-05	2.76043E-06
900	490.75	-3.894998E-05	3.431974E-06
900	491	-3.296503E-05	3.828779E-06
900	491.25	-2.540322E-05	3.690791E-06
900	491.5	-3.231994E-05	4.200015E-06
900	491.75	-3.586791E-05	3.117493E-06
900	492	-3.343092E-05	4.211636E-06
900	492.25	-3.196156E-05	4.946738E-06
900	492.5	-3.020549E-05	2.742665E-06
900	492.75	-4.142278E-05	3.424147E-06
900	493	-3.138815E-05	3.178015E-06
900	493.25	-2.984712E-05	3.586584E-06
900	493.5	-2.930954E-05	2.682187E-06
900	493.75	-3.604708E-05	3.58304E-06
900	494	-4.278461E-05	2.942013E-06
900	494.25	-3.393265E-05	3.843139E-06
900	494.5	-3.231993E-05	2.900072E-06
900	494.75	-4.077769E-05	4.076576E-06
900	495	-4.962965E-05	3.72776E-06
900	495.25	-3.325172E-05	2.579615E-06
900	495.5	-4.593835E-05	4.068849E-06
900	495.75	-4.264126E-05	3.349736E-06
900	496	-3.669215E-05	3.175948E-06
900	496.25	-3.393263E-05	3.389525E-06
900	496.5	-3.257078E-05	3.564971E-06
900	496.75	-3.407598E-05	2.875858E-06
900	497	-3.934414E-05	3.751057E-06
900	497.25	-4.002507E-05	2.733778E-06
900	497.5	-3.85557E-05	4.056993E-06
900	497.75	-4.142275E-05	4.002457E-06
900	498	-3.880657E-05	3.46522E-06
900	498.25	-4.016841E-05	3.498317E-06
900	498.5	-3.253493E-05	3.660329E-06
900	498.75	-4.64042E-05	2.847531E-06
900	499	-3.862738E-05	3.743479E-06
900	499.25	-4.493486E-05	3.622076E-06
900	499.5	-3.300082E-05	3.609051E-06
900	499.75	-4.102852E-05	3.119708E-06
900	500	-4.264123E-05	5.057976E-06
900	500.25	-3.167481E-05	1.850586E-06
900	500.5	-3.973835E-05	2.995917E-06
900	500.75	-3.941579E-05	4.934714E-06
900	501	-3.292913E-05	3.773738E-06
900	501.25	-3.909326E-05	4.01543E-06
900	501.5	-3.959498E-05	4.369795E-06
900	501.75	-3.626206E-05	2.826985E-06
900	502	-2.848523E-05	2.928616E-06
900	502.25	-3.869904E-05	3.35939E-06
900	502.5	-3.955915E-05	3.507726E-06
900	502.75	-3.927244E-05	3.367918E-06
900	503	-3.414762E-05	3.836519E-06
900	503.25	-3.396843E-05	3.590675E-06
900	503.5	-3.823315E-05	4.689446E-06
900	503.75	-3.626206E-05	3.106206E-06
900	504	-4.253369E-05	3.919153E-06
900	504.25	-3.400428E-05	4.514871E-06
900	504.5	-3.744471E-05	3.274941E-06
900	504.75	-3.210486E-05	4.866224E-06
900	505	-3.70505E-05	3.811385E-06
900	505.25	-3.608287E-05	3.036958E-06
900	505.5	-3.328753E-05	2.596293E-06
900	505.75	-4.009672E-05	3.921648E-06
900	506	-3.23199E-05	3.785424E-06
900	506.25	-3.991753E-05	4.130511E-06
900	506.5	-3.94875E-05	3.982207E-06
900	506.75	-4.199614E-05	1.873387E-06
900	507	-4.081349E-05	3.879171E-06
900	507.25	-3.550949E-05	3.63586E-06
900	507.5	-3.834068E-05	3.77648E-06
900	507.75	-3.142396E-05	4.175288E-06
900	508	-4.557995E-05	3.730228E-06
900	508.25	-7.539713E-05	6.163664E-06
900	508.5	-3.991755E-05	3.183307E-06
900	508.75	-3.930832E-05	3.872711E-06
900	509	-3.830486E-05	4.37352E-06
900	509.25	-3.855572E-05	3.714376E-06
900	509.5	-3.346673E-05	2.849437E-06
900	509.75	-3.429101E-05	4.101511E-06
900	510	-4.289212E-05	3.632169E-06
900	510.25	-3.550951E-05	3.708224E-06
900	510.5	-3.59754E-05	3.43008E-06
900	510.75	-4.203201E-05	4.432605E-06
900	511	-3.884244E-05	4.464572E-06
900	511.25	-3.468523E-05	3.250955E-06
900	511.5	-3.887827E-05	4.316867E-06
900	511.75	-3.654879E-05	4.460958E-06
900	512	-4.253374E-05	4.491993E-06
900	512.25	-4.127941E-05	2.77854E-06
900	512.5	-4.375224E-05	4.450646E-06
900	512.75	-3.920081E-05	3.661401E-06
900	513	-4.604585E-05	4.974193E-06
900	513.25	-3.848405E-05	3.363362E-06
900	513.5	-3.343091E-05	3.872546E-06
900	513.75	-3.622626E-05	2.944219E-06
900	514	-4.235455E-05	3.099011E-06
900	514.25	-2.862861E-05	3.193491E-06
900	514.5	-3.934415E-05	4.271537E-06
900	514.75	-3.941584E-05	4.612373E-06
900	515	-5.321345E-05	5.117178E-06
900	515.25	-3.590372E-05	4.341442E-06
900	515.5	-3.565286E-05	4.011612E-06
900	515.75	-3.378928E-05	3.877241E-06
900	516	-3.522279E-05	3.539078E-06
900	516.25	-4.21037E-05	4.21624E-06
900	516.5	-3.142397E-05	3.721726E-06
900	516.75	-4.095687E-05	2.794672E-06
900	517	-4.074184E-05	3.724179E-06
900	517.25	-3.984589E-05	3.908839E-06
900	517.5	-3.952334E-05	4.219791E-06
900	517.75	-2.952457E-05	4.262308E-06
900	518	-3.450603E-05	4.778767E-06
900	518.25	-3.658464E-05	5.426516E-06
900	518.5	-3.629794E-05	3.912944E-06
900	518.75	-4.568747E-05	4.562381E-06
900	519	-3.206905E-05	3.971066E-06
900	519.25	-3.952335E-05	4.674911E-06
900	519.5	-4.651174E-05	5.038529E-06
900	519.75	-3.464938E-05	4.062917E-06
900	520	-4.067015E-05	3.56427E-06
900	520.25	-3.783895E-05	3.878252E-06
900	520.5	-3.378926E-05	3.770164E-06
900	520.75	-3.400429E-05	2.367867E-06
900	521	-3.253494E-05	3.633189E-06
900	521.25	-4.088518E-05	3.64918E-06
900	521.5	-3.529447E-05	3.690903E-06
900	521.75	-3.206903E-05	4.571878E-06
900	522	-3.554532E-05	3.320338E-06
900	522.25	-3.343088E-05	3.778274E-06
900	522.5	-4.425394E-05	3.56511E-06
900	522.75	-4.016841E-05	3.888155E-06
900	523	-3.249909E-05	3.934183E-06
900	523.25	-3.404012E-05	3.793558E-06
900	523.5	-3.819733E-05	2.210362E-06
900	523.75	-3.540196E-05	3.131032E-06
900	524	-3.497189E-05	4.086938E-06
900	524.25	-4.049095E-05	4.148042E-06
900	524.5	-3.909327E-05	4.365173E-06
900	524.75	-3.21407E-05	4.625269E-06
900	525	-4.009672E-05	3.80265E-06
900	590	-2.701588E-05	3.772338E-06
900	590.25	-3.163897E-05	3.147986E-06
900	590.5	-3.06355E-05	4.444577E-06
900	590.75	-3.733719E-05	3.976287E-06
900	591	-3.038464E-05	3.856904E-06
900	591.25	-3.443432E-05	4.281961E-06
900	591.5	-4.067012E-05	5.03246E-06
900	591.75	-3.601118E-05	3.666519E-06
900	592	-1.819973E-05	4.235857E-06
900	592.25	-2.457889E-05	4.491702E-06
900	592.5	-3.948746E-05	5.054022E-06
900	592.75	-3.783892E-05	3.552777E-06
900	593	-3.608285E-05	5.13624E-06
900	593.25	-3.378923E-05	4.000456E-06
900	593.5	-3.361003E-05	3.630926E-06
900	593.75	-3.142392E-05	3.311944E-06
900	594	-3.124473E-05	4.780091E-06
900	594.25	-3.490019E-05	4.771693E-06
900	594.5	-3.081467E-05	4.425284E-06
900	594.75	-2.880775E-05	4.271081E-06
900	595	-3.224818E-05	3.856532E-06
900	595.25	-3.292911E-05	3.579787E-06
900	595.5	-3.081467E-05	3.70456E-06
900	595.75	-3.400424E-05	3.496089E-06
900	596	-3.138806E-05	2.424472E-06
900	596.25	-3.443429E-05	4.670827E-06
900	596.5	-2.629909E-05	4.01027E-06
900	596.75	-3.361002E-05	3.837148E-06
900	597	-2.586904E-05	4.35802E-06
900	597.25	-3.135222E-05	2.894648E-06
900	597.5	-3.117303E-05	4.045609E-06
900	597.75	-4.113597E-05	4.094992E-06
900	598	-3.694294E-05	3.972621E-06
900	598.25	-3.034876E-05	4.00245E-06
900	598.5	-2.156848E-05	3.50404E-06
900	598.75	-2.880773E-05	2.973489E-06
900	599	-2.751756E-05	4.327737E-06
900	599.25	-3.210481E-05	3.301691E-06
900	599.5	-3.547357E-05	3.365307E-06
900	599.75	-2.572566E-05	2.302535E-06
900	600	-3.020539E-05	4.745133E-06
900	600.25	-4.024001E-05	3.901485E-06
900	600.5	-2.694415E-05	3.45449E-06
900	600.75	-3.128053E-05	4.483524E-06
900	601	-2.966783E-05	3.776227E-06
900	601.25	-2.780426E-05	2.24282E-06
900	601.5	-3.00262E-05	2.850582E-06
900	601.75	-3.482848E-05	3.264942E-06
900	602	-2.852101E-05	3.656518E-06
900	602.25	-3.744464E-05	5.007394E-06
900	602.5	-3.171057E-05	4.293653E-06
900	602.75	-3.024122E-05	2.787916E-06
900	603	-3.239149E-05	3.344824E-06
900	603.25	-3.550939E-05	3.921441E-06
900	603.5	-2.515224E-05	4.176697E-06
900	603.75	-2.891522E-05	3.082705E-06
900	604	-2.844933E-05	2.74466E-06
900	604.25	-3.034874E-05	3.089456E-06
900	604.5	-3.052793E-05	4.109079E-06
900	604.75	-3.404004E-05	3.159045E-06
900	605	-3.346664E-05	3.786718E-06
900	605.25	-3.325161E-05	3.963988E-06
900	605.5	-3.457761E-05	3.008128E-06
900	605.75	-3.038458E-05	2.932361E-06
900	606	-3.945157E-05	3.602276E-06
900	606.25	-3.171058E-05	3.574078E-06
900	606.5	-2.353955E-05	3.793421E-06
900	606.75	-2.672913E-05	3.059589E-06
900	607	-3.063546E-05	3.855937E-06
900	607.25	-3.296492E-05	3.478101E-06
900	607.5	-2.65141E-05	2.891639E-06
900	607.75	-3.199731E-05	4.430826E-06
900	608	-3.855563E-05	3.749244E-06
900	608.25	-3.160309E-05	5.338911E-06
900	608.5	-3.328747E-05	2.667885E-06
900	608.75	-3.572444E-05	3.244687E-06
900	609	-3.25349E-05	3.636915E-06
900	609.25	-3.113721E-05	2.765846E-06
900	609.5	-3.52944E-05	4.060293E-06
900	609.75	-2.705169E-05	2.595933E-06
900	610	-2.895111E-05	4.085871E-06
900	610.25	-2.948867E-05	3.144991E-06
900	610.5	-3.192566E-05	3.752404E-06
900	610.75	-2.956035E-05	3.282795E-06
900	611	-2.712338E-05	3.178145E-06
900	611.25	-2.608407E-05	4.154915E-06
900	611.5	-2.533149E-05	2.492361E-06
900	611.75	-3.024128E-05	3.801054E-06
900	612	-3.314415E-05	4.117706E-06
900	612.25	-2.98829E-05	3.366985E-06
900	612.5	-3.522275E-05	3.77018E-06
900	612.75	-2.275115E-05	2.693942E-06
900	613	-2.744592E-05	4.075521E-06
900	613.25	-2.930949E-05	3.699357E-06
900	613.5	-2.981122E-05	4.174259E-06
900	613.75	-2.991874E-05	3.161307E-06
900	614	-3.196151E-05	3.257201E-06
900	614.25	-2.518813E-05	3.078633E-06
900	614.5	-3.461352E-05	3.773E-06
900	614.75	-2.683668E-05	4.116459E-06
900	615	-3.120891E-05	3.154167E-06
900	615.25	-2.210607E-05	4.194519E-06
900	615.5	-3.429098E-05	3.606201E-06
900	615.75	-2.784014E-05	4.424851E-06
900	616	-2.816268E-05	4.224283E-06
900	616.25	-3.676379E-05	3.787119E-06
900	616.5	-3.171064E-05	3.567629E-06
900	616.75	-2.629911E-05	3.987559E-06
900	617	-2.966788E-05	3.999066E-06
900	617.25	-2.69442E-05	3.682443E-06
900	617.5	-3.03488E-05	4.274039E-06
900	617.75	-3.013377E-05	3.996781E-06
900	618	-2.963204E-05	4.722741E-06
900	618.25	-4.009671E-05	3.980323E-06
900	618.5	-2.637079E-05	3.854111E-06
900	618.75	-2.626327E-05	3.78233E-06
900	619	-2.766095E-05	3.348923E-06
900	619.25	-3.009793E-05	4.198122E-06
900	619.5	-2.902279E-05	3.459241E-06
900	619.75	-3.844816E-05	4.400206E-06
900	620	-3.231988E-05	3.001151E-06
900	620.25	-2.056504E-05	3.303554E-06
900	620.5	-3.063549E-05	3.576118E-06
900	620.75	-2.78043E-05	3.151587E-06
900	621	-2.637078E-05	3.390784E-06
900	621.25	-3.393258E-05	3.475621E-06
900	621.5	-2.701586E-05	4.456393E-06
900	621.75	-3.095802E-05	3.911882E-06
900	622	-2.758926E-05	3.671691E-06
900	622.25	-3.128057E-05	3.521975E-06
900	622.5	-3.590366E-05	5.177458E-06
900	622.75	-3.002624E-05	4.015196E-06
900	623	-3.196149E-05	4.198393E-06
900	623.25	-3.425511E-05	3.064205E-06
900	623.5	-3.300078E-05	4.095412E-06
900	623.75	-2.235693E-05	3.38992E-06
900	624	3.992948E-05	3.933467E-06
900	624.25	-2.558234E-05	4.358839E-06
900	624.5	-3.149559E-05	3.540261E-06
900	624.75	-2.984705E-05	3.717251E-06
900	625	-2.654996E-05	4.684267E-06
900	625.25	-3.285743E-05	4.356119E-06
900	625.5	-2.181935E-05	3.570686E-06
900	625.75	-3.393255E-05	3.673962E-06
900	626	-2.554649E-05	2.923444E-06
900	626.25	-2.930947E-05	3.133921E-06
900	626.5	-2.898693E-05	3.448993E-06
900	626.75	-3.178228E-05	4.466114E-06
900	627	-2.282281E-05	3.140313E-06
900	627.25	-3.325163E-05	4.327622E-06
900	627.5	-2.522395E-05	3.742349E-06
900	627.75	-3.393255E-05	4.216552E-06
900	628	-2.995455E-05	4.81584E-06
900	628.25	-3.092216E-05	3.445597E-06
900	628.5	-3.006205E-05	3.111871E-06
900	628.75	-2.959616E-05	2.939071E-06
900	629	-2.171182E-05	3.712081E-06
900	629.25	-3.045627E-05	4.947965E-06
900	629.5	-2.640659E-05	2.741201E-06
900	629.75	-3.439844E-05	3.476337E-06
900	630	-2.956032E-05	4.235917E-06
900	630.25	-3.84481E-05	2.729566E-06
900	630.5	-3.952325E-05	3.394734E-06
900	630.75	-3.063545E-05	3.846784E-06
900	631	-2.375459E-05	3.511646E-06
900	631.25	-2.525977E-05	3.657942E-06
900	631.5	-3.755216E-05	4.37475E-06
900	631.75	-2.773258E-05	2.451426E-06
900	632	-2.973949E-05	2.787813E-06
900	632.25	-2.705166E-05	3.210886E-06
900	632.5	-3.317994E-05	3.559695E-06
900	632.75	-2.981116E-05	3.665501E-06
900	633	-2.371873E-05	2.430231E-06
900	633.25	-2.461468E-05	3.204167E-06
900	633.5	-3.095798E-05	4.040754E-06
900	633.75	-2.952446E-05	3.789147E-06
900	634	-3.063543E-05	3.955212E-06
900	634.25	-3.647699E-05	4.502039E-06
900	634.5	-3.031289E-05	4.168641E-06
900	634.75	-3.450592E-05	3.276089E-06
900	635	-3.267817E-05	4.737212E-06
900	645	-3.558105E-05	3.522982E-06
900	645.25	-2.658575E-05	3.249037E-06
900	645.5	-2.482968E-05	4.213536E-06
900	645.75	-2.647823E-05	3.500042E-06
900	646	-3.676369E-05	3.357917E-06
900	646.25	-3.439839E-05	4.419016E-06
900	646.5	-3.472094E-05	4.301653E-06
900	646.75	-3.39325E-05	3.62043E-06
900	647	-2.615568E-05	2.000224E-06
900	647.25	-2.862849E-05	2.429143E-06
900	647.5	-2.547475E-05	2.658476E-06
900	647.75	-2.913022E-05	3.179036E-06
900	648	-2.680076E-05	3.90404E-06
900	648.25	-2.515222E-05	2.616462E-06
900	648.5	-2.647822E-05	4.719858E-06
900	648.75	-2.583314E-05	3.30307E-06
900	649	-2.891518E-05	3.792211E-06
900	649.25	-2.518805E-05	3.3563E-06
900	649.5	-3.447005E-05	3.220135E-06
900	649.75	-2.758918E-05	4.377401E-06
900	650	-3.052788E-05	3.744857E-06
900	650.25	-2.766086E-05	3.643982E-06
900	650.5	-3.185388E-05	4.149165E-06
900	650.75	-3.12088E-05	3.755341E-06
900	651	-2.938107E-05	2.526108E-06
900	651.25	-2.841346E-05	4.663021E-06
900	651.5	-3.128048E-05	3.647524E-06
900	651.75	-3.149551E-05	4.573221E-06
900	652	-3.03487E-05	4.099496E-06
900	652.25	-3.325156E-05	3.99091E-06
900	652.5	-3.221226E-05	2.413819E-06
900	652.75	-3.49001E-05	3.919016E-06
900	653	-3.181805E-05	3.452585E-06
900	653.25	-3.378913E-05	3.800951E-06
900	653.5	-2.809092E-05	3.828372E-06
900	653.75	-3.210475E-05	4.231394E-06
900	654	-3.106546E-05	3.202405E-06
900	654.25	-3.823303E-05	3.868181E-06
900	654.5	-3.43267E-05	3.541826E-06
900	654.75	-3.429088E-05	4.047597E-06
900	655	-3.916482E-05	4.970289E-06
900	655.25	-3.737292E-05	3.109069E-06
900	655.5	-2.314531E-05	4.226303E-06
900	655.75	-2.999033E-05	4.602416E-06
900	656	-2.956028E-05	3.002381E-06
900	656.25	-3.540186E-05	2.920901E-06
900	656.5	-3.719376E-05	3.126144E-06
900	656.75	-2.809094E-05	3.420675E-06
900	657	-3.321575E-05	3.113106E-06
900	657.25	-3.429089E-05	3.907861E-06
900	657.5	-3.081462E-05	4.394844E-06
900	657.75	-3.604695E-05	3.494922E-06
900	658	-3.730127E-05	3.714365E-06
900	658.25	-3.210479E-05	4.450025E-06
900	658.5	-3.056376E-05	3.817588E-06
900	658.75	-3.400419E-05	3.362866E-06
900	659	-3.267819E-05	5.071954E-06
900	659.25	-2.196268E-05	3.7953E-06
900	659.5	-3.525852E-05	3.374325E-06
900	659.75	-3.335911E-05	3.384459E-06
900	660	-3.13522E-05	3.651401E-06
900	660.25	-3.791053E-05	3.864993E-06
900	660.5	-3.224815E-05	3.990934E-06
900	660.75	-3.163891E-05	4.066174E-06
900	661	-3.568859E-05	4.003928E-06
900	661.25	-3.303659E-05	4.964017E-06
900	661.5	-3.568859E-05	3.611198E-06
900	661.75	-3.059961E-05	3.110724E-06
900	662	-2.332452E-05	3.421866E-06
900	662.25	-2.608404E-05	4.424799E-06
900	662.5	-2.780426E-05	3.120023E-06
900	662.75	-2.866437E-05	4.516678E-06
900	663	-2.920194E-05	3.796223E-06
900	663.25	-2.898691E-05	2.982737E-06
900	663.5	-3.25707E-05	2.312461E-06
900	663.75	-3.027707E-05	3.388969E-06
900	664	-3.296491E-05	2.18735E-06
900	664.25	-2.687248E-05	4.808587E-06
900	664.5	-3.389669E-05	3.256977E-06
900	664.75	-2.848518E-05	4.222014E-06
900	665	-2.970366E-05	3.537133E-06
900	665.25	-3.479264E-05	3.346723E-06
900	665.5	-3.855561E-05	3.377137E-06
900	665.75	-3.52227E-05	4.176219E-06
900	666	-3.93799E-05	4.791462E-06
900	666.25	-3.185394E-05	3.222244E-06
900	666.5	-3.75163E-05	5.703139E-06
900	666.75	-3.210481E-05	3.125781E-06
900	667	-3.651286E-05	3.589636E-06
900	667.25	-3.024123E-05	4.215705E-06
900	667.5	-3.203312E-05	3.035919E-06
900	667.75	-2.733836E-05	4.578858E-06
900	668	-3.045625E-05	3.802043E-06
900	668.25	-3.307242E-05	3.721621E-06
900	668.5	-2.762508E-05	3.24066E-06
900	668.75	-4.031167E-05	4.33788E-06
900	669	-3.651285E-05	4.305668E-06
900	669.25	-3.178226E-05	3.53562E-06
900	669.5	-3.332329E-05	3.905287E-06
900	669.75	-3.350247E-05	3.888294E-06
900	670	-3.468512E-05	4.518462E-06
900	670.25	-2.647825E-05	3.716461E-06
900	670.5	-2.837765E-05	4.54942E-06
900	670.75	-3.095798E-05	2.092487E-06
900	671	-3.32516E-05	4.75824E-06
900	671.25	-2.508057E-05	2.893684E-06
900	671.5	-3.518685E-05	3.461607E-06
900	671.75	-2.902272E-05	3.350131E-06
900	672	-3.436257E-05	3.437031E-06
900	672.25	-3.049208E-05	2.985963E-06
900	672.5	-3.504349E-05	3.547285E-06
900	672.75	-2.991867E-05	4.046787E-06
900	673	-3.360996E-05	3.11613E-06
900	673.25	-3.2499E-05	4.059674E-06
900	673.5	-2.705164E-05	3.579821E-06
900	673.75	-2.93811E-05	3.24453E-06
900	674	-3.031288E-05	3.222551E-06
900	674.25	-2.680077E-05	3.632414E-06
900	674.5	-2.708747E-05	3.093886E-06
900	674.75	-3.077878E-05	3.978253E-06
900	675	-2.956029E-05	3.471465E-06
900	675.25	-3.454175E-05	4.120331E-06
900	675.5	-2.981115E-05	3.422197E-06
900	675.75	-2.819845E-05	2.966952E-06
900	676	-2.970364E-05	3.825838E-06
900	676.25	-3.461341E-05	3.56534E-06
900	676.5	-2.622737E-05	2.772052E-06
900	676.75	-3.239146E-05	5.47447E-06
900	677	-2.099503E-05	4.820794E-06
900	677.25	-3.346661E-05	4.292155E-06
900	677.5	-3.192557E-05	3.482955E-06
900	677.75	-3.550936E-05	4.766852E-06
900	678	-3.124465E-05	3.829286E-06
900	678.25	-3.296486E-05	3.367591E-06
900	678.5	-3.188973E-05	4.600043E-06
900	678.75	-3.436253E-05	5.000418E-06
900	679	-3.647697E-05	3.375083E-06
900	679.25	-3.113713E-05	3.130498E-06
900	679.5	-2.981113E-05	4.150798E-06
900	679.75	-2.959611E-05	3.417647E-06
900	680	-3.296485E-05	4.17758E-06
900	680.25	-3.185388E-05	4.54731E-06
900	680.5	-2.862848E-05	3.2582E-06
900	680.75	-3.307237E-05	3.398699E-06
900	681	-3.267815E-05	4.23431E-06
900	681.25	-2.784004E-05	3.486843E-06
900	681.5	-3.267814E-05	4.99356E-06
900	681.75	-2.877182E-05	3.579858E-06
900	682	-3.013366E-05	3.686208E-06
900	682.25	-2.963192E-05	3.941291E-06
900	682.5	-2.708744E-05	3.755378E-06
900	682.75	-2.08875E-05	3.34853E-06
900	683	-2.7625E-05	4.019343E-06
900	683.25	-2.54389E-05	3.088596E-06
900	683.5	-2.79117E-05	3.16247E-06
900	683.75	-3.203305E-05	4.057294E-06
900	684	-1.902393E-05	3.495304E-06
900	684.25	-3.163883E-05	5.039033E-06
900	684.5	-3.145965E-05	3.958434E-06
900	684.75	-3.031283E-05	2.959387E-06
900	685	-2.956023E-05	3.895805E-06
900	685.25	-2.794753E-05	3.987186E-06
900	685.5	-2.654986E-05	2.744291E-06
900	685.75	-1.8343E-05	3.706146E-06
900	686	-2.916601E-05	3.367036E-06
900	686.25	-3.343071E-05	3.86587E-06
900	686.5	-2.672905E-05	3.209657E-06
900	686.75	-2.719494E-05	3.139349E-06
900	687	-2.884347E-05	4.410168E-06
900	687.25	-3.135211E-05	3.710322E-06
900	687.5	-2.15684E-05	3.067942E-06
900	687.75	-3.099374E-05	4.716979E-06
900	688	-2.594061E-05	4.641606E-06
900	688.25	-2.77325E-05	3.80738E-06
900	688.5	-2.963191E-05	3.743711E-06
900	688.75	-2.103083E-05	3.260605E-06
900	689	-2.697991E-05	3.499363E-06
900	689.25	-2.923769E-05	4.49529E-06
900	689.5	-2.525969E-05	4.061511E-06
900	689.75	-2.87718E-05	3.896462E-06
900	690	-2.350364E-05	4.014562E-06
900	690.25	-2.124586E-05	4.430945E-06
900	690.5	-2.540304E-05	2.822856E-06
900	690.75	-2.038576E-05	3.433079E-06
900	691	-3.267812E-05	4.535743E-06
900	691.25	-2.472214E-05	2.842957E-06
900	691.5	-2.995445E-05	3.462075E-06
900	691.75	-3.518677E-05	3.264061E-06
900	692	-2.389787E-05	3.228366E-06
900	692.25	-3.497174E-05	4.407709E-06
900	692.5	-3.192554E-05	3.488786E-06
900	692.75	-3.24631E-05	4.47217E-06
900	693	-3.472089E-05	4.838576E-06
900	693.25	-3.289315E-05	4.095749E-06
900	693.5	-3.174636E-05	3.798809E-06
900	693.75	-2.977528E-05	3.445901E-06
900	694	-3.461339E-05	3.947876E-06
900	694.25	-2.941691E-05	3.233028E-06
900	694.5	-3.085043E-05	3.860962E-06
900	694.75	-3.529431E-05	3.419775E-06
900	695	-3.239146E-05	5.058469E-06
900	830	-2.289443E-05	3.144734E-06
900	830.25	-2.289442E-05	2.513109E-06
900	830.5	-3.378913E-05	2.855056E-06
900	830.75	-3.185388E-05	3.364262E-06
900	831	-3.403999E-05	3.996466E-06
900	831.25	-3.898561E-05	4.328323E-06
900	831.5	-3.031285E-05	3.213702E-06
900	831.75	-3.973822E-05	3.12872E-06
900	832	-2.941693E-05	2.783739E-06
900	832.25	-3.149551E-05	3.728628E-06
900	832.5	-3.325157E-05	3.758591E-06
900	832.75	-2.902271E-05	3.819099E-06
900	833	-3.178221E-05	4.329857E-06
900	833.25	-2.361119E-05	4.62771E-06
900	833.5	-1.199972E-05	4.331407E-06
900	833.75	-6.265675E-06	4.103068E-06
900	834	-3.183615E-06	3.837535E-06
900	834.25	2.788786E-05	3.548984E-06
900	834.5	5.05733E-05	4.061357E-06
900	834.75	5.426461E-05	3.54464E-06
900	835	4.265311E-05	3.766191E-06
900	835.25	2.1222E-05	3.350096E-06
900	835.5	9.359643E-06	3.091768E-06
900	835.75	-1.176692E-06	4.050652E-06
900	836	-1.210725E-05	2.845544E-06
900	836.25	-2.164011E-05	2.343385E-06
900	836.5	-2.106671E-05	2.999337E-06
900	836.75	-2.228518E-05	5.148568E-06
900	837	-2.927357E-05	3.500631E-06
900	837.25	-3.769546E-05	2.453023E-06
900	837.5	-3.199724E-05	2.931093E-06
900	837.75	-3.751628E-05	3.347126E-06
900	838	-3.583189E-05	3.473313E-06
900	838.25	-3.808968E-05	3.752681E-06
900	838.5	-3.916481E-05	3.533961E-06
900	838.75	-4.138676E-05	2.649146E-06
900	839	-4.75867E-05	2.490751E-06
900	839.25	-4.099253E-05	2.413317E-06
900	839.5	-3.83047E-05	3.505621E-06
900	839.75	-3.851973E-05	2.822531E-06
900	840	-3.217643E-05	2.552801E-06
900	840.25	-3.375329E-05	3.90159E-06
900	840.5	-2.715912E-05	3.444991E-06
900	840.75	-7.735023E-06	3.344032E-06
900	841	-4.975505E-06	3.381377E-06
900	841.25	-3.29112E-06	4.155012E-06
900	841.5	-2.196264E-05	2.857503E-06
900	841.75	-2.651404E-05	2.860997E-06
900	842	-2.798339E-05	4.395895E-06
900	842.25	-3.887809E-05	3.060656E-06
900	842.5	-4.378787E-05	4.331585E-06
900	842.75	-4.142257E-05	4.654243E-06
900	843	-4.464797E-05	3.505131E-06
900	843.25	-4.540056E-05	3.939335E-06
900	843.5	-4.873348E-05	3.267318E-06
900	843.75	-4.80884E-05	4.710443E-06
900	844	-3.93798E-05	2.514669E-06
900	844.25	-4.500635E-05	3.083163E-06
900	844.5	-4.522138E-05	3.617944E-06
900	844.75	-5.292651E-05	3.535998E-06
900	845	-4.529304E-05	3.49267E-06
900	845.25	-4.572309E-05	4.198907E-06
900	845.5	-4.633233E-05	4.811513E-06
900	845.75	-4.927104E-05	3.427318E-06
900	846	-5.038201E-05	3.658559E-06
900	846.25	-3.651278E-05	4.357927E-06
900	846.5	-4.873346E-05	3.867384E-06
900	846.75	-5.28548E-05	3.648813E-06
900	847	-4.880513E-05	2.467406E-06
900	847.25	-5.396576E-05	4.4634E-06
900	847.5	-4.973692E-05	2.980026E-06
900	847.75	-5.163632E-05	3.520566E-06
900	848	-4.952188E-05	3.941741E-06
900	848.25	-5.052535E-05	5.163712E-06
900	848.5	-4.307108E-05	3.689514E-06
900	848.75	-4.482714E-05	4.035834E-06
900	849	-5.00236E-05	3.794709E-06
900	849.25	-5.066868E-05	4.321142E-06
900	849.5	-4.833924E-05	4.736062E-06
900	849.75	-4.826755E-05	4.860511E-06
900	850	-5.375073E-05	4.111257E-06
900	850.25	-4.819587E-05	3.218447E-06
900	850.5	-4.758663E-05	3.902572E-06
900	850.75	-4.837506E-05	5.544352E-06
900	851	-5.005943E-05	2.740074E-06
900	851.25	-4.937852E-05	3.529734E-06
900	851.5	-4.586641E-05	5.222257E-06
900	851.75	-4.873343E-05	3.869485E-06
900	852	-5.023861E-05	3.435238E-06
900	852.25	-4.916348E-05	3.052716E-06
900	852.5	-4.665483E-05	2.887975E-06
900	852.75	-5.256807E-05	3.477865E-06
900	853	-5.238886E-05	3.359227E-06
900	853.25	-4.432536E-05	3.050447E-06
900	853.5	-4.497044E-05	3.116993E-06
900	853.75	-4.507796E-05	3.706202E-06
900	854	-5.088368E-05	3.125726E-06
900	854.25	-5.321313E-05	3.541014E-06
900	854.5	-4.109996E-05	3.886282E-06
900	854.75	-4.733573E-05	2.26018E-06
900	855	-4.988022E-05	4.17981E-06
900	855.25	-5.04536E-05	2.584159E-06
900	855.5	-4.643978E-05	3.16179E-06
900	855.75	-5.124205E-05	4.057026E-06
900	856	-4.866173E-05	3.337362E-06
900	856.25	-4.715654E-05	4.111133E-06
900	856.5	-4.608142E-05	2.827881E-06
900	856.75	-4.955767E-05	4.330145E-06
900	857	-5.199465E-05	4.375911E-06
900	857.25	-4.937849E-05	2.594191E-06
900	857.5	-5.063283E-05	2.835491E-06
900	857.75	-4.694151E-05	3.808614E-06
900	858	-4.557969E-05	3.359227E-06
900	858.25	-4.56872E-05	2.521496E-06
900	858.5	-4.178089E-05	3.586205E-06
900	858.75	-4.256933E-05	4.001368E-06
900	859	-5.023862E-05	4.250518E-06
900	859.25	-3.995316E-05	2.736764E-06
900	859.5	-4.927099E-05	3.913745E-06
900	859.75	-5.163629E-05	3.609924E-06
900	860	-4.267684E-05	4.602144E-06
900	860.25	-4.783749E-05	3.187616E-06
900	860.5	-5.217386E-05	2.795551E-06
900	860.75	-4.20676E-05	3.360629E-06
900	861	-5.364322E-05	5.100927E-06
900	861.25	-4.636815E-05	3.023666E-06
900	861.5	-4.3752E-05	5.475018E-06
900	861.75	-4.72641E-05	2.955501E-06
900	862	-4.471962E-05	4.93341E-06
900	862.25	-4.00607E-05	3.299111E-06
900	862.5	-4.332195E-05	3.131772E-06
900	862.75	-4.332195E-05	4.623293E-06
900	863	-4.615314E-05	4.288939E-06
900	863.25	-3.676364E-05	3.459333E-06
900	863.5	-4.532887E-05	4.72277E-06
900	863.75	-5.05612E-05	4.487333E-06
900	864	-4.368034E-05	2.858925E-06
900	864.25	-4.816007E-05	2.4586E-06
900	864.5	-4.851844E-05	4.673212E-06
900	864.75	-4.959358E-05	3.364218E-06
900	865	-4.49705E-05	3.081125E-06
900	865.25	-4.765834E-05	4.149576E-06
900	865.5	-3.848387E-05	3.872585E-06
900	865.75	-4.70491E-05	2.636103E-06
900	866	-4.282024E-05	4.361887E-06
900	866.25	-3.429084E-05	3.483813E-06
900	866.5	-4.39312E-05	2.762251E-06
900	866.75	-3.629776E-05	2.898214E-06
900	867	-4.884099E-05	3.21088E-06
900	867.25	-3.550933E-05	4.808756E-06
900	867.5	-4.023991E-05	2.277417E-06
900	867.75	-4.142256E-05	4.044895E-06
900	868	-4.697742E-05	3.606684E-06
900	868.25	-3.86989E-05	3.81053E-06
900	868.5	-3.730122E-05	3.50285E-06
900	868.75	-4.583062E-05	4.089456E-06
900	869	-3.758792E-05	3.028643E-06
900	869.25	-4.020407E-05	2.807143E-06
900	869.5	-3.636942E-05	3.270373E-06
900	869.75	-4.296359E-05	3.890691E-06
900	870	-4.479131E-05	4.248607E-06
900	870.25	-3.407581E-05	3.987188E-06
900	870.5	-3.783879E-05	3.974571E-06
900	870.75	-3.898559E-05	4.648781E-06
900	871	-3.497176E-05	3.000429E-06
900	871.25	-3.167467E-05	2.649521E-06
900	871.5	-3.905726E-05	3.658071E-06
900	871.75	-4.500634E-05	4.298596E-06
900	872	-3.35024E-05	2.894518E-06
900	872.25	-3.740872E-05	3.120291E-06
900	872.5	-2.690825E-05	2.928534E-06
900	872.75	-3.447002E-05	4.124255E-06
900	873	-3.260645E-05	4.592618E-06
900	873.25	-3.124462E-05	3.069571E-06
900	873.5	-3.475672E-05	3.874407E-06
900	873.75	-3.414747E-05	3.904457E-06
900	874	-3.791043E-05	2.698353E-06
900	874.25	-2.920185E-05	4.345069E-06
900	874.5	-3.22839E-05	3.921123E-06
900	874.75	-3.124461E-05	2.499984E-06
900	875	-3.554514E-05	3.755623E-06
900	875.25	-2.68724E-05	4.119823E-06
900	875.5	-2.608397E-05	3.162177E-06
900	875.75	-2.300192E-05	3.751404E-06
900	876	-2.701575E-05	2.960447E-06
900	876.25	-2.823423E-05	4.427833E-06
900	876.5	-2.626315E-05	4.224251E-06
900	876.75	-2.809088E-05	3.302094E-06
900	877	-3.106541E-05	5.232645E-06
900	877.25	-2.601228E-05	4.466294E-06
900	877.5	-2.676487E-05	3.416473E-06
900	877.75	-2.382618E-05	3.066709E-06
900	878	-1.78771E-05	4.249297E-06
900	878.25	-1.604937E-05	2.651647E-06
900	878.5	-1.232223E-05	4.139864E-06
900	878.75	-1.630024E-05	4.113236E-06
900	879	-1.103208E-05	3.506208E-06
900	879.25	-5.369704E-06	3.828574E-06
900	879.5	2.729646E-06	4.181475E-06
900	879.75	5.793728E-07	3.701992E-06
900	880	1.240587E-05	4.724243E-06
900	880.25	2.641847E-05	3.537015E-06
900	880.5	5.064488E-05	3.740919E-06
900	880.75	7.687825E-05	3.279207E-06
900	881	0.0001128953	4.156253E-06
900	881.25	0.000141494	3.599702E-06
900	881.5	0.0001798764	3.904029E-06
900	881.75	0.0002007699	3.329905E-06
900	882	0.0001884416	2.673682E-06
900	882.25	0.0002029918	3.699645E-06
900	882.5	0.0002189396	3.527359E-06
900	882.75	0.000227469	4.290065E-06
900	883	0.0002130981	4.32764E-06
900	883.25	0.0001807006	3.470195E-06
900	883.5	0.0001579435	2.801347E-06
900	883.75	0.0001293449	2.759414E-06
900	884	0.0001123577	4.017789E-06
900	884.25	8.927813E-05	4.76361E-06
900	884.5	7.293604E-05	4.14974E-06
900	884.75	4.924718E-05	3.234863E-06
900	885	4.552004E-05	3.051158E-06
900	885.25	3.842415E-05	4.34388E-06
900	885.5	2.659764E-05	3.33656E-06
900	885.75	2.455489E-05	4.589907E-06
900	886	1.161742E-05	3.079179E-06
900	886.25	1.803239E-05	3.078395E-06
900	886.5	7.603581E-06	2.619239E-06
900	886.75	1.068564E-05	4.138559E-06
900	887	2.908841E-06	4.375325E-06
900	887.25	6.635976E-06	4.812417E-06
900	887.5	2.335423E-06	2.339267E-06
900	887.75	9.377602E-07	4.191422E-06
900	888	-8.4159E-06	3.829353E-06
900	888.25	1.690355E-06	4.123509E-06
900	888.5	-1.225054E-05	3.534923E-06
900	888.75	-1.558345E-05	3.433157E-06
900	889	-1.956145E-05	4.366947E-06
900	889.25	-1.006444E-05	3.779482E-06
900	889.5	-1.712448E-05	3.557056E-06
900	889.75	-1.422163E-05	3.556515E-06
900	890	-1.131876E-05	3.625699E-06
900	890.25	-1.38274E-05	4.647734E-06
900	890.5	-1.927474E-05	4.264392E-06
900	890.75	-1.081703E-05	4.646032E-06
900	891	-1.246557E-05	3.777178E-06
900	891.25	-1.544011E-05	3.510596E-06
900	891.5	-1.766205E-05	2.304014E-06
900	891.75	-1.554762E-05	3.841352E-06
900	892	-1.275228E-05	2.826442E-06
900	892.25	-6.874889E-06	3.398569E-06
900	892.5	-1.483086E-05	4.631782E-06
900	892.75	-8.236715E-06	4.39003E-06
900	893	7.227251E-07	3.823893E-06
900	893.25	4.127319E-06	3.644176E-06
900	893.5	-2.574355E-06	2.836474E-06
900	893.75	1.43411E-05	3.516579E-06
900	894	2.351559E-05	2.579416E-06
900	894.25	3.294096E-05	3.877583E-06
900	894.5	4.552006E-05	3.356264E-06
900	894.75	8.616026E-05	3.850755E-06
900	895	0.0001209589	4.864768E-06
900	895.25	0.0001478015	3.506158E-06
900	895.5	0.0001524246	5.100454E-06
900	895.75	0.0001345056	2.762646E-06
900	896	0.000110315	4.636268E-06
900	896.25	7.515803E-05	3.275244E-06
900	896.5	5.340442E-05	3.481856E-06
900	896.75	3.914093E-05	4.114306E-06
900	897	3.337103E-05	3.572323E-06
900	897.25	2.36948E-05	4.639017E-06
900	897.5	1.412608E-05	3.533358E-06
900	897.75	1.851563E-07	3.722765E-06
900	898	5.381646E-06	4.68898E-06
900	898.25	1.045256E-06	2.554057E-06
900	898.5	5.970158E-09	4.181471E-06
900	898.75	1.690344E-06	3.554235E-06
900	899	-9.616543E-07	3.730845E-06
900	899.25	-9.813594E-06	3.007792E-06
900	899.5	-6.050624E-06	3.846945E-06
900	899.75	-1.572683E-05	3.664967E-06
900	900	-1.174883E-05	4.364502E-06
900	900.25	-1.092457E-05	4.012605E-06
900	900.5	-1.432916E-05	3.180288E-06
900	900.75	-1.257311E-05	3.196269E-06
900	901	-1.099624E-05	3.599871E-06
900	901.25	-2.669319E-05	5.472177E-06
900	901.5	-1.174884E-05	4.087324E-06
900	901.75	-3.163881E-05	3.371715E-06
900	902	-1.665861E-05	4.508842E-06
900	902.25	-1.250142E-05	4.483645E-06
900	902.5	-1.379159E-05	3.733347E-06
900	902.75	-2.045742E-05	4.3417E-06
900	903	-2.359335E-06	2.876118E-06
900	903.25	-4.330406E-06	3.982766E-06
900	903.5	7.531908E-06	3.349942E-06
900	903.75	2.376647E-05	3.088004E-06
900	904	4.408655E-05	3.86924E-06
900	904.25	9.089088E-05	3.329328E-06
900	904.5	0.0001605239	3.838989E-06
900	904.75	0.000213134	3.853126E-06
900	905	0.0002103028	4.035264E-06
900	905.25	0.0001734614	4.112798E-06
900	905.5	0.0001173034	3.802761E-06
900	905.75	8.393832E-05	2.35784E-06
900	906	5.021484E-05	3.53413E-06
900	906.25	3.086237E-05	4.383389E-06
900	906.5	1.333764E-05	2.933408E-06
900	906.75	5.740016E-06	3.171734E-06
900	907	-2.466844E-06	3.373917E-06
900	907.25	-1.221472E-05	2.901926E-06
900	907.5	-1.303898E-05	2.700412E-06
900	907.75	-2.257184E-05	3.364321E-06
900	908	-2.776832E-05	3.737643E-06
900	908.25	-1.834298E-05	4.208374E-06
900	908.5	-2.124584E-05	3.791189E-06
900	908.75	-2.088746E-05	2.451418E-06
900	909	-2.257183E-05	2.992829E-06
900	909.25	-3.71578E-05	3.467014E-06
900	909.5	-2.96677E-05	2.950739E-06
900	909.75	-2.823419E-05	4.378256E-06
900	910	-3.106538E-05	3.395542E-06
900	910.25	-2.973938E-05	3.224358E-06
900	910.5	-2.106664E-05	3.94018E-06
900	910.75	-4.403864E-05	3.709626E-06
900	911	-2.601224E-05	4.08318E-06
900	911.25	-2.708738E-05	4.302189E-06
900	911.5	-3.393239E-05	3.239393E-06
900	911.75	-2.827003E-05	2.955715E-06
900	912	-2.744575E-05	3.289511E-06
900	912.25	-2.328857E-05	4.487184E-06
900	912.5	-1.748286E-05	4.002827E-06
900	912.75	-1.587016E-05	3.77933E-06
900	913	-1.640772E-05	5.698606E-06
900	913.25	-1.637189E-05	3.549344E-06
900	913.5	-1.167713E-05	5.223346E-06
900	913.75	-5.405524E-06	4.142135E-06
900	914	-3.255258E-06	4.494225E-06
900	914.25	9.753863E-06	4.746296E-06
900	914.5	1.753066E-05	2.474052E-06
900	914.75	2.828202E-05	3.75846E-06
900	915	4.415818E-05	3.390421E-06
900	915.25	6.548172E-05	4.789762E-06
900	915.5	9.243179E-05	4.565809E-06
900	915.75	0.000131065	3.229697E-06
900	916	0.000179697	3.025017E-06
900	916.25	0.0002232042	3.942654E-06
900	916.5	0.0002469647	4.293553E-06
900	916.75	0.0002547414	3.900496E-06
900	917	0.0002315902	3.627108E-06
900	917.25	0.0001985119	3.432691E-06
900	917.5	0.0001594128	4.986903E-06
900	917.75	0.0001289147	4.665058E-06
900	918	0.0001024664	4.064575E-06
900	918.25	8.099949E-05	4.886449E-06
900	918.5	6.103781E-05	4.254655E-06
900	918.75	5.03223E-05	4.523875E-06
900	919	4.738359E-05	3.552149E-06
900	919.25	2.939298E-05	2.810018E-06
900	919.5	2.813866E-05	3.668106E-06
900	919.75	2.269131E-05	3.652181E-06
900	920	1.419776E-05	6.26965E-06
900	920.25	5.417486E-06	4.215917E-06
900	920.5	1.01839E-05	2.025603E-06
900	920.75	1.090067E-05	3.827343E-06
900	921	-3.398612E-06	4.14074E-06
900	921.25	6.510503E-07	2.41346E-06
900	921.5	-2.448921E-07	3.457637E-06
900	921.75	-2.215962E-06	3.887403E-06
900	922	-4.509583E-06	3.682835E-06
900	922.25	-1.85758E-06	5.368468E-06
900	922.5	-5.656392E-06	3.639355E-06
900	922.75	-1.429329E-05	3.76772E-06
900	923	-1.716032E-05	4.586097E-06
900	923.25	-1.70528E-05	3.917551E-06
900	923.5	-1.694529E-05	3.883415E-06
900	923.75	-2.379031E-05	2.781706E-06
900	924	-1.94181E-05	2.938696E-06
900	924.25	-2.712322E-05	4.875311E-06
900	924.5	-2.052907E-05	3.543309E-06
900	924.75	-2.626312E-05	3.507445E-06
900	925	-2.31094E-05	4.111913E-06
900	925.25	-2.382616E-05	2.961914E-06
900	925.5	-3.210468E-05	3.62987E-06
900	925.75	-2.160421E-05	5.136691E-06
900	926	-2.816252E-05	3.145998E-06
900	926.25	-2.85209E-05	3.759967E-06
900	926.5	-2.522383E-05	2.964057E-06
900	926.75	-3.135209E-05	4.799095E-06
900	927	-3.927223E-05	3.227301E-06
900	927.25	-3.443413E-05	3.588074E-06
900	927.5	-3.045614E-05	4.863664E-06
900	927.75	-3.045614E-05	4.699215E-06
900	928	-3.185383E-05	4.293991E-06
900	928.25	-3.314398E-05	5.098545E-06
900	928.5	-2.852091E-05	3.967E-06
900	928.75	-3.188966E-05	3.502806E-06
900	929	-2.959605E-05	3.423587E-06
900	929.25	-3.644106E-05	2.745016E-06
900	929.5	-3.188966E-05	3.23772E-06
900	929.75	-3.102955E-05	4.299951E-06
900	930	-2.719492E-05	3.315764E-06
900	930.25	-2.31094E-05	3.660134E-06
900	930.5	-2.6514E-05	3.729119E-06
900	930.75	-2.318108E-05	3.715067E-06
900	931	-1.884471E-05	3.97905E-06
900	931.25	-1.669444E-05	3.276778E-06
900	931.5	-2.572556E-05	3.383143E-06
900	931.75	-3.131626E-05	4.683671E-06
900	932	-2.629896E-05	4.077639E-06
900	932.25	-1.687363E-05	3.14559E-06
900	932.5	-2.601227E-05	3.248501E-06
900	932.75	-3.206885E-05	4.522964E-06
900	933	-1.888054E-05	3.788816E-06
900	933.25	-2.536718E-05	3.765164E-06
900	933.5	-2.278687E-05	3.904235E-06
900	933.75	-2.278686E-05	4.923908E-06
900	934	-2.224929E-05	3.731127E-06
900	934.25	-2.629896E-05	2.900744E-06
900	934.5	-1.547596E-05	3.650687E-06
900	934.75	-2.576139E-05	4.896955E-06
900	935	-2.375448E-05	2.297657E-06
900	935.25	-1.425747E-05	4.942596E-06
900	935.5	-1.769789E-05	2.924604E-06
900	935.75	-1.909556E-05	5.345411E-06
900	936	-9.7419E-06	4.476873E-06
900	936.25	-6.301484E-06	3.814173E-06
900	936.5	-7.663312E-06	4.069373E-06
900	936.75	2.209911E-07	2.656324E-06
900	937	1.24417E-05	4.657203E-06
900	937.25	1.057813E-05	4.357781E-06
900	937.5	2.903463E-05	4.744562E-06
900	937.75	3.831664E-05	3.27692E-06
900	938	4.154204E-05	4.689182E-06
900	938.25	4.559172E-05	3.436016E-06
900	938.5	4.86021E-05	4.044603E-06
900	938.75	4.508999E-05	3.646592E-06
900	939	3.874668E-05	4.298919E-06
900	939.25	4.007269E-05	3.932146E-06
900	939.5	3.283343E-05	3.799529E-06
900	939.75	3.605884E-05	2.902598E-06
900	940	2.294219E-05	4.675081E-06
900	940.25	2.588089E-05	4.816678E-06
900	940.5	2.83537E-05	4.411098E-06
900	940.75	2.197456E-05	3.495512E-06
900	941	1.602548E-05	3.726579E-06
900	941.25	1.602547E-05	3.472348E-06
900	941.5	1.448445E-05	3.698652E-06
900	941.75	1.025558E-05	3.091922E-06
900	942	7.137686E-06	2.560002E-06
900	942.25	3.80478E-06	3.57345E-06
900	942.5	5.059104E-06	3.318776E-06
900	942.75	6.779324E-06	4.200776E-06
900	943	1.403659E-06	4.793322E-06
900	943.25	8.069484E-06	4.157372E-06
900	943.5	2.299603E-06	4.635003E-06
900	943.75	1.762022E-06	2.234559E-06
900	944	3.303063E-06	4.842744E-06
900	944.25	1.326596E-05	4.211988E-06
900	944.5	4.234833E-06	3.352954E-06
900	944.75	1.509369E-05	3.423735E-06
900	945	1.193996E-05	3.94053E-06
900	945.25	2.097109E-05	3.462632E-06
900	945.5	1.641968E-05	3.899797E-06
900	945.75	1.950174E-05	4.012611E-06
900	946	1.269256E-05	4.34264E-06
900	946.25	1.240585E-05	3.117453E-06
900	946.5	1.057812E-05	3.076095E-06
900	946.75	2.064855E-05	3.814854E-06
900	947	1.330181E-05	4.758982E-06
900	947.25	1.781737E-05	5.611427E-06
900	947.5	1.867747E-05	3.25568E-06
900	947.75	6.994353E-06	4.526104E-06
900	948	2.007514E-05	4.264134E-06
900	948.25	1.724395E-05	3.571477E-06
900	948.5	1.247753E-05	3.929687E-06
900	948.75	1.086483E-05	3.944798E-06
900	949	2.58092E-05	3.743298E-06
900	949.25	2.663347E-05	3.231794E-06
900	949.5	2.469823E-05	3.437633E-06
900	949.75	2.168785E-05	3.901682E-06
900	950	3.161493E-05	3.956799E-06
900	950.25	3.473284E-05	4.882096E-06
900	950.5	4.810036E-05	3.458824E-06
900	950.75	4.164955E-05	4.18978E-06
900	951	4.229463E-05	4.44685E-06
900	951.25	4.767031E-05	4.190223E-06
900	951.5	4.258133E-05	3.404933E-06
900	951.75	3.835247E-05	3.031051E-06
900	952	2.634678E-05	3.766406E-06
900	952.25	3.570046E-05	3.876846E-06
900	952.5	2.867624E-05	3.197212E-06
900	952.75	2.433986E-05	3.634358E-06
900	953	1.767402E-05	4.222348E-06
900	953.25	1.355267E-05	3.978898E-06
900	953.5	1.032726E-05	3.640965E-06
900	953.75	6.779316E-06	3.22936E-06
900	954	1.833701E-06	4.179301E-06
900	954.25	-5.15467E-06	3.465453E-06
900	954.5	-2.574352E-06	3.022957E-06
900	954.75	-1.490255E-05	4.178053E-06
900	955	-9.706068E-06	3.355848E-06
900	955.25	-1.732159E-07	4.38217E-06
900	955.5	-1.37199E-05	4.193087E-06
900	955.75	-1.877302E-05	4.124216E-06
900	956	-1.748286E-05	4.142961E-06
900	956.25	-2.189091E-05	3.93282E-06
900	956.5	-1.626437E-05	4.203932E-06
900	956.75	-2.52955E-05	4.305391E-06
900	957	-2.120999E-05	5.208272E-06
900	957.25	-2.583306E-05	3.175839E-06
900	957.5	-2.90943E-05	4.687659E-06
900	957.75	-3.837627E-05	3.299539E-06
900	958	-2.905846E-05	4.038904E-06
900	958.25	-2.58689E-05	2.972878E-06
900	958.5	-3.006191E-05	2.80289E-06
900	958.75	-2.884344E-05	3.212942E-06
900	959	-2.572555E-05	4.341089E-06
900	959.25	-2.58689E-05	3.552138E-06
900	959.5	-3.421909E-05	3.627253E-06
900	959.75	-3.210467E-05	4.452143E-06
900	960	-3.418326E-05	3.496911E-06
900	960.25	-3.450579E-05	2.235036E-06
900	960.5	-3.554508E-05	3.275099E-06
900	960.75	-3.561676E-05	4.092762E-06
900	961	-3.239137E-05	3.367032E-06
900	961.25	-3.558093E-05	3.876225E-06
900	961.5	-2.941684E-05	4.057869E-06
900	961.75	-3.396823E-05	3.227167E-06
900	962	-3.679941E-05	3.884186E-06
900	962.25	-4.170918E-05	3.559342E-06
900	962.5	-3.980977E-05	3.379744E-06
900	962.75	-3.687107E-05	3.210918E-06
900	963	-3.762367E-05	3.317245E-06
900	963.25	-2.898677E-05	2.74608E-06
900	963.5	-3.16746E-05	4.64106E-06
900	963.75	-3.160292E-05	4.704749E-06
900	964	-2.887925E-05	2.499723E-06
900	964.25	-3.429075E-05	4.429791E-06
900	964.5	-3.27139E-05	3.157181E-06
900	964.75	-3.450578E-05	3.556252E-06
900	965	-2.999023E-05	3.130878E-06
900	965.25	-2.84492E-05	3.715083E-06
900	965.5	-3.357399E-05	2.870476E-06
900	965.75	-2.737406E-05	3.674975E-06
900	966	-3.468496E-05	4.201277E-06
900	966.25	-2.547466E-05	3.296378E-06
900	966.5	-2.680065E-05	4.843797E-06
900	966.75	-2.210591E-05	3.272547E-06
900	967	-2.077991E-05	3.542766E-06
900	967.25	-2.547466E-05	4.025861E-06
900	967.5	-1.533257E-05	3.603469E-06
900	967.75	-1.594181E-05	4.025525E-06
900	968	-1.225053E-05	3.223182E-06
900	968.25	-1.248342E-06	3.800908E-06
900	968.5	-5.548869E-06	4.200837E-06
900	968.75	-5.405519E-06	3.991457E-06
900	969	-8.559238E-06	3.629397E-06
900	969.25	-4.043674E-06	5.792507E-06
900	969.5	-8.451721E-06	4.756905E-06
900	969.75	-5.943084E-06	3.883175E-06
415	390	-0.001120114	2.181301E-05
415	390.25	-0.001082712	1.648904E-05
415	390.5	-0.001097809	2.644105E-05
415	390.75	-0.00110794	1.993882E-05
415	391	-0.001147882	2.614844E-05
415	391.25	-0.001077597	2.128564E-05
415	391.5	-0.00112473	2.68294E-05
415	391.75	-0.001068645	2.250503E-05
415	392	-0.001138448	3.215582E-05
415	392.25	-0.001080868	3.08046E-05
415	392.5	-0.001078941	2.215537E-05
415	392.75	-0.001095483	2.829011E-05
415	393	-0.001094669	2.263972E-05
415	393.25	-0.001076118	2.336285E-05
415	393.5	-0.001091729	2.029916E-05
415	393.75	-0.00109628	2.184105E-05
415	394	-0.00106798	2.103257E-05
415	394.25	-0.001076882	2.89389E-05
415	394.5	-0.001038335	2.452858E-05
415	394.75	-0.001062366	3.347403E-05
415	395	-0.001085086	2.964585E-05
415	395.25	-0.00112355	2.68109E-05
415	395.5	-0.001087311	2.416976E-05
415	395.75	-0.001066767	2.270448E-05
415	396	-0.001121125	3.056257E-05
415	396.25	-0.001099501	2.821018E-05
415	396.5	-0.001087543	2.460933E-05
415	396.75	-0.001062017	2.237908E-05
415	397	-0.001089104	2.659236E-05
415	397.25	-0.001091994	2.939678E-05
415	397.5	-0.001084039	2.871921E-05
415	397.75	-0.001073144	2.172086E-05
415	398	-0.001071549	2.414913E-05
415	398.25	-0.00115434	2.546622E-05
415	398.5	-0.001082045	2.427507E-05
415	398.75	-0.001084005	2.856671E-05
415	399	-0.001078657	2.043788E-05
415	399.25	-0.001072446	2.182286E-05
415	399.5	-0.001067846	2.55018E-05
415	399.75	-0.001093223	3.072335E-05
415	400	-0.001133314	2.336997E-05
415	400.25	-0.00108922	2.06648E-05
415	400.5	-0.001130856	2.106063E-05
415	400.75	-0.001095996	2.390474E-05
415	401	-0.001118499	2.41423E-05
415	401.25	-0.001095514	2.305271E-05
415	401.5	-0.001070303	2.16463E-05
415	401.75	-0.00105901	2.260266E-05
415	402	-0.001089734	2.437112E-05
415	402.25	-0.001111092	1.969559E-05
415	402.5	-0.001091096	2.787253E-05
415	402.75	-0.001105794	2.732999E-05
415	403	-0.001099151	2.697444E-05
415	403.25	-0.001118117	2.658613E-05
415	403.5	-0.001101044	2.485697E-05
415	403.75	-0.001127168	2.934822E-05
415	404	-0.001090116	2.457941E-05
415	404.25	-0.001115924	2.467389E-05
415	404.5	-0.001057764	2.39856E-05
415	404.75	-0.001082011	3.364741E-05
415	405	-0.001070469	2.251313E-05
415	405.25	-0.001048778	2.51155E-05
415	405.5	-0.001070535	2.823287E-05
415	405.75	-0.001028135	2.154312E-05
415	406	-0.001125042	1.729155E-05
415	406.25	-0.00108794	2.059674E-05
415	406.5	-0.001110875	2.31197E-05
415	406.75	-0.001108949	2.720878E-05
415	407	-0.001081496	2.193617E-05
415	407.25	-0.001069505	2.27528E-05
415	407.5	-0.001053777	2.214834E-05
415	407.75	-0.001054209	2.600631E-05
415	408	-0.001067761	2.433166E-05
415	408.25	-0.001052149	2.246132E-05
415	408.5	-0.001055238	1.883976E-05
415	408.75	-0.001056351	2.817149E-05
415	409	-0.001039693	2.454137E-05
415	409.25	-0.00101978	2.101205E-05
415	409.5	-0.0009650237	2.153607E-05
415	409.75	-0.0009693585	1.778274E-05
415	410	-0.0009319406	2.541129E-05
415	410.25	-0.000814589	2.071297E-05
415	410.5	-0.0008388035	2.273106E-05
415	410.75	-0.0007122845	1.772046E-05
415	411	-0.0006801812	2.37725E-05
415	411.25	-0.0006380137	2.122424E-05
415	411.5	-0.0005606043	2.408459E-05
415	411.75	-0.0005416546	2.637393E-05
415	412	-0.0005047851	2.550276E-05
415	412.25	-0.0004954679	2.745681E-05
415	412.5	-0.0004269106	2.217548E-05
415	412.75	-0.000448285	2.379927E-05
415	413	-0.0004631323	2.548853E-05
415	413.25	-0.0004572697	2.355139E-05
415	413.5	-0.0004125944	2.819861E-05
415	413.75	-0.0004847556	2.475034E-05
415	414	-0.0005002176	2.184175E-05
415	414.25	-0.0004197192	2.999048E-05
415	414.5	-0.0004450959	2.242576E-05
415	414.75	-0.0004095717	2.753927E-05
415	415	-0.0004438172	2.843771E-05
415	415.25	-0.0004321916	2.669294E-05
415	415.5	-0.0004360778	2.212149E-05
415	415.75	-0.0003986602	2.454343E-05
415	416	-0.0004326731	2.565643E-05
415	416.25	-0.0004036923	2.386544E-05
415	416.5	-0.0004098705	2.204504E-05
415	416.75	-0.0003950728	2.504915E-05
415	417	-0.0004038251	2.075722E-05
415	417.25	-0.0003439869	3.118062E-05
415	417.5	-0.0003885956	2.247145E-05
415	417.75	-0.0003808232	2.392763E-05
415	418	-0.0003710411	2.096085E-05
415	418.25	-0.0003309829	2.230813E-05
415	418.5	-0.0003587844	2.188408E-05
415	418.75	-0.0003543667	2.01146E-05
415	419	-0.0003014374	1.816088E-05
415	419.25	-0.0002929342	1.894885E-05
415	419.5	-0.0002950599	2.19505E-05
415	419.75	-0.0003329426	2.418002E-05
415	420	-0.0003873498	2.363351E-05
415	420.25	-0.0004221101	2.221826E-05
415	420.5	-0.0005148483	1.990783E-05
415	420.75	-0.0005919588	2.268621E-05
415	421	-0.0006564469	2.263294E-05
415	421.25	-0.0007712238	2.685969E-05
415	421.5	-0.0008759031	2.621258E-05
415	421.75	-0.0009046847	2.221744E-05
415	422	-0.0009579457	1.822774E-05
415	422.25	-0.001011307	2.03188E-05
415	422.5	-0.0009904807	3.238832E-05
415	422.75	-0.0009886706	2.75179E-05
415	423	-0.001066462	2.1567E-05
415	423.25	-0.001043377	1.892844E-05
415	423.5	-0.001044307	2.414422E-05
415	423.75	-0.001106669	2.812364E-05
415	424	-0.001086474	2.357892E-05
415	424.25	-0.001052793	2.286351E-05
415	424.5	-0.001073088	1.994769E-05
415	424.75	-0.00108669	2.233933E-05
415	425	-0.00109232	1.983433E-05
415	425.25	-0.001091108	2.654075E-05
415	425.5	-0.001099976	2.578402E-05
415	425.75	-0.001097768	1.685922E-05
415	426	-0.00106309	2.213686E-05
415	426.25	-0.001121069	2.454669E-05
415	426.5	-0.001069086	2.13597E-05
415	426.75	-0.001045204	2.518718E-05
415	427	-0.001068289	2.115707E-05
415	427.25	-0.001053226	2.35465E-05
415	427.5	-0.001087106	2.262341E-05
415	427.75	-0.001079715	2.561425E-05
415	428	-0.001112499	2.477736E-05
415	428.25	-0.001101272	1.463518E-05
415	428.5	-0.001097851	2.003609E-05
415	428.75	-0.001061281	1.945101E-05
415	429	-0.001070431	2.50689E-05
415	429.25	-0.001054621	2.2993E-05
415	429.5	-0.001074733	2.241886E-05
415	429.75	-0.001078802	2.352208E-05
415	430	-0.001106271	2.593872E-05
415	430.25	-0.001097801	1.854965E-05
415	430.5	-0.001098084	2.176917E-05
415	430.75	-0.001089531	1.881573E-05
415	431	-0.001092171	1.906491E-05
415	431.25	-0.001046251	2.208917E-05
415	431.5	-0.001049572	1.388805E-05
415	431.75	-0.001033147	2.772818E-05
415	432	-0.001111868	2.238256E-05
415	432.25	-0.00109908	2.356776E-05
415	432.5	-0.001109028	2.317157E-05
415	432.75	-0.001085129	2.345856E-05
415	433	-0.001114492	1.983131E-05
415	433.25	-0.001061181	1.762369E-05
415	433.5	-0.001086906	2.129934E-05
415	433.75	-0.001106587	2.66324E-05
415	434	-0.001107351	2.366676E-05
415	434.25	-0.001061945	1.864275E-05
415	434.5	-0.001086741	2.11631E-05
415	434.75	-0.001090527	2.178268E-05
415	435	-0.001110954	2.174033E-05
500	480	-0.001010955	2.338561E-05
500	480.25	-0.001034435	2.895294E-05
500	480.5	-0.0010037	2.48679E-05
500	480.75	-0.0009801257	2.559034E-05
500	481	-0.001028143	2.42709E-05
500	481.25	-0.00101173	2.934872E-05
500	481.5	-0.0009815813	2.943942E-05
500	481.75	-0.001008677	3.214527E-05
500	482	-0.001043475	2.853331E-05
500	482.25	-0.001038544	2.889796E-05
500	482.5	-0.0009916546	2.7292E-05
500	482.75	-0.001016262	2.217884E-05
500	483	-0.0009668829	2.444583E-05
500	483.25	-0.001011025	2.194487E-05
500	483.5	-0.001029434	2.56962E-05
500	483.75	-0.0009969141	3.302409E-05
500	484	-0.00101436	2.731984E-05
500	484.25	-0.001029105	2.59281E-05
500	484.5	-0.0009846338	2.446672E-05
500	484.75	-0.0009997545	2.1704E-05
500	485	-0.001000553	2.808938E-05
500	485.25	-0.0009817689	3.327265E-05
500	485.5	-0.001032603	2.513101E-05
500	485.75	-0.0009833187	2.710551E-05
500	486	-0.001006071	2.396921E-05
500	486.25	-0.001006493	2.854583E-05
500	486.5	-0.000990292	2.855478E-05
500	486.75	-0.0009786693	3.234585E-05
500	487	-0.0009877797	2.311026E-05
500	487.25	-0.0009788571	3.160587E-05
500	487.5	-0.001040539	2.727553E-05
500	487.75	-0.001001445	2.62634E-05
500	488	-0.0009740905	2.049698E-05
500	488.25	-0.0009931566	2.984254E-05
500	488.5	-0.0009665067	2.863038E-05
500	488.75	-0.0009802658	2.685777E-05
500	489	-0.0008914407	2.439051E-05
500	489.25	-0.0008674439	2.587293E-05
500	489.5	-0.0009019128	2.779816E-05
500	489.75	-0.0008549527	2.502847E-05
500	490	-0.0008316369	2.896056E-05
500	490.25	-0.0007472495	2.510939E-05
500	490.5	-0.0007064882	2.368326E-05
500	490.75	-0.0006360243	3.049118E-05
500	491	-0.00049876	2.496472E-05
500	491.25	-0.0003940624	2.744747E-05
500	491.5	-0.0002103543	2.535038E-05
500	491.75	0.0001248709	2.414019E-05
500	492	0.0004297841	2.449882E-05
500	492.25	0.0007357771	3.219827E-05
500	492.5	0.0009950448	3.135511E-05
500	492.75	0.001224328	2.443402E-05
500	493	0.001364411	2.684111E-05
500	493.25	0.001387938	3.30076E-05
500	493.5	0.001483666	3.265316E-05
500	493.75	0.001418603	2.015064E-05
500	494	0.001310031	2.730694E-05
500	494.25	0.001301249	2.494445E-05
500	494.5	0.001222684	2.813807E-05
500	494.75	0.001272533	2.959184E-05
500	495	0.001236444	2.644661E-05
500	495.25	0.001189883	2.373749E-05
500	495.5	0.001207328	3.047996E-05
500	495.75	0.001257999	3.393327E-05
500	496	0.001232405	2.329651E-05
500	496.25	0.001241703	2.778193E-05
500	496.5	0.001289344	2.017267E-05
500	496.75	0.001278473	2.868208E-05
500	497	0.001276712	2.761597E-05
500	497.25	0.001248982	2.32933E-05
500	497.5	0.001291809	2.618465E-05
500	497.75	0.001282394	2.994996E-05
500	498	0.001257317	2.533002E-05
500	498.25	0.001281149	3.135251E-05
500	498.5	0.001279388	2.803499E-05
500	498.75	0.001272696	2.983023E-05
500	499	0.001211601	2.74704E-05
500	499.25	0.001198429	2.857813E-05
500	499.5	0.001196856	2.260896E-05
500	499.75	0.00109366	3.708226E-05
500	500	0.001029724	3.143938E-05
500	500.25	0.000928055	2.734007E-05
500	500.5	0.0008674999	3.643863E-05
500	500.75	0.000712437	2.663795E-05
500	501	0.0005515277	3.105398E-05
500	501.25	0.0003578638	2.577339E-05
500	501.5	0.0001482569	2.302692E-05
500	501.75	-5.043155E-05	2.262738E-05
500	502	-0.0002888713	2.019614E-05
500	502.25	-0.0004699962	2.069388E-05
500	502.5	-0.000564832	2.72169E-05
500	502.75	-0.0007194949	3.130692E-05
500	503	-0.0008239575	3.043352E-05
500	503.25	-0.0008959707	2.778328E-05
500	503.5	-0.000912712	3.197382E-05
500	503.75	-0.0009301341	3.136114E-05
500	504	-0.0009624189	2.834723E-05
500	504.25	-0.00100689	2.496428E-05
500	504.5	-0.0009907596	2.944116E-05
500	504.75	-0.001030417	2.872311E-05
500	505	-0.00100581	1.97511E-05
500	505.25	-0.001014662	2.915153E-05
500	505.5	-0.00101215	2.459303E-05
500	505.75	-0.0009926615	2.526586E-05
500	506	-0.001028751	2.349881E-05
500	506.25	-0.001043942	3.606089E-05
500	506.5	-0.0009773295	2.513697E-05
500	506.75	-0.001016659	2.772166E-05
500	507	-0.001021166	2.966184E-05
500	507.25	-0.001006492	2.880851E-05
500	507.5	-0.001008628	2.756792E-05
500	507.75	-0.0009595317	3.289366E-05
500	508	-0.00102962	2.574947E-05
500	508.25	-0.0009788089	3.161053E-05
500	508.5	-0.0009764137	2.477001E-05
500	508.75	-0.001060684	2.356403E-05
500	509	-0.001027154	3.31874E-05
500	509.25	-0.001038801	3.349879E-05
500	509.5	-0.001022552	3.03252E-05
500	509.75	-0.001051315	3.49605E-05
500	510	-0.001069536	3.211502E-05
500	510.25	-0.00102375	2.883404E-05
500	510.5	-0.0009812746	3.118908E-05
500	510.75	-0.0009877079	3.758249E-05
500	511	-0.0009855009	3.156731E-05
500	511.25	-0.001012386	2.506039E-05
500	511.5	-0.001015485	2.820951E-05
500	511.75	-0.0009505155	2.59376E-05
500	512	-0.001003346	4.006218E-05
500	512.25	-0.000990737	2.340665E-05
500	512.5	-0.001028916	4.220658E-05
500	512.75	-0.001025417	3.102072E-05
500	513	-0.001016119	1.765941E-05
500	513.25	-0.0009948458	3.247101E-05
500	513.5	-0.001012949	3.18766E-05
500	513.75	-0.001049555	2.636641E-05
500	514	-0.001004214	2.709749E-05
500	514.25	-0.001015156	3.30082E-05
500	514.5	-0.001024078	2.359527E-05
500	514.75	-0.001002876	3.00316E-05
500	515	-0.001084587	2.461821E-05
500	515.25	-0.001047418	2.22584E-05
500	515.5	-0.001004614	2.278613E-05
500	515.75	-0.001026286	3.578686E-05
500	516	-0.001026098	3.205514E-05
500	516.25	-0.0009400202	2.702551E-05
500	516.5	-0.001031005	2.709103E-05
500	516.75	-0.001022834	2.825822E-05
500	517	-0.001008018	2.410006E-05
500	517.25	-0.001008159	2.541323E-05
500	517.5	-0.001004332	2.252131E-05
500	517.75	-0.001065873	3.774846E-05
500	518	-0.0009814856	3.909425E-05
500	518.25	-0.0009902203	2.641922E-05
500	518.5	-0.001041923	3.117595E-05
500	518.75	-0.0009666228	2.561895E-05
500	519	-0.001018842	2.286243E-05
500	519.25	-0.001010296	2.845863E-05
500	519.5	-0.0009793723	3.039495E-05
500	519.75	-0.0009702855	3.972385E-05
500	520	-0.001051386	3.992605E-05
500	520.25	-0.001041219	2.173847E-05
500	520.5	-0.00105108	2.700215E-05
500	520.75	-0.0009923098	2.833478E-05
500	521	-0.001057796	3.127626E-05
500	521.25	-0.001058829	3.863903E-05
500	521.5	-0.001001984	3.287468E-05
500	521.75	-0.001042792	1.85943E-05
500	522	-0.001058758	2.495515E-05
500	522.25	-0.001051057	3.464092E-05
500	522.5	-0.001021261	3.221615E-05
500	522.75	-0.001014475	3.632018E-05
500	523	-0.001015837	3.065936E-05
500	523.25	-0.001001208	2.770593E-05
500	523.5	-0.001069418	2.928475E-05
500	523.75	-0.001016236	2.220201E-05
500	524	-0.001017222	2.104409E-05
500	524.25	-0.0009710834	2.399148E-05
500	524.5	-0.001001373	2.332734E-05
500	524.75	-0.001063196	2.862554E-05
615	590	-0.001154482	2.295305E-05
615	590.25	-0.001132214	2.145043E-05
615	590.5	-0.001152365	2.551446E-05
615	590.75	-0.001124484	2.171064E-05
615	591	-0.001115522	2.122154E-05
615	591.25	-0.001110222	2.250246E-05
615	591.5	-0.001109191	2.280759E-05
615	591.75	-0.001104498	1.967279E-05
615	592	-0.001120086	2.202477E-05
615	592.25	-0.00112257	3.20247E-05
615	592.5	-0.001091984	2.296546E-05
615	592.75	-0.001135545	2.291096E-05
615	593	-0.001071133	2.9071E-05
615	593.25	-0.001126398	2.191433E-05
615	593.5	-0.001098903	2.902624E-05
615	593.75	-0.001070121	2.27329E-05
615	594	-0.001100136	2.40795E-05
615	594.25	-0.001120711	2.920707E-05
615	594.5	-0.001124852	2.073952E-05
615	594.75	-0.001105437	2.467928E-05
615	595	-0.001062115	2.015454E-05
615	595.25	-0.001040639	2.665667E-05
615	595.5	-0.001069624	2.874637E-05
615	595.75	-0.001121889	2.651763E-05
615	596	-0.001056005	2.45138E-05
615	596.25	-0.001062317	2.596376E-05
615	596.5	-0.001082414	2.698078E-05
615	596.75	-0.00105987	2.457074E-05
615	597	-0.001035559	1.966051E-05
615	597.25	-0.001090456	2.787753E-05
615	597.5	-0.001082101	2.518025E-05
615	597.75	-0.001077463	1.973616E-05
615	598	-0.001087235	2.078724E-05
615	598.25	-0.00109375	2.467881E-05
615	598.5	-0.001026762	2.174693E-05
615	598.75	-0.001087235	2.436851E-05
615	599	-0.001025621	1.880493E-05
615	599.25	-0.001072015	2.818278E-05
615	599.5	-0.001088762	2.415486E-05
615	599.75	-0.001046932	2.307822E-05
615	600	-0.00104419	2.364504E-05
615	600.25	-0.001056538	1.958737E-05
615	600.5	-0.001038393	2.547092E-05
615	600.75	-0.001056869	2.146926E-05
615	601	-0.001091376	2.404332E-05
615	601.25	-0.001058379	2.331649E-05
615	601.5	-0.001084989	3.085205E-05
615	601.75	-0.001043196	2.03802E-05
615	602	-0.001004052	2.200727E-05
615	602.25	-0.001106264	2.389177E-05
615	602.5	-0.001036846	1.936084E-05
615	602.75	-0.001009591	2.416904E-05
615	603	-0.001036423	1.947015E-05
615	603.25	-0.001038871	2.09827E-05
615	603.5	-0.0009949054	2.409222E-05
615	603.75	-0.001007162	2.034023E-05
615	604	-0.0009716623	1.826455E-05
615	604.25	-0.0009724537	1.721696E-05
615	604.5	-0.0009612646	2.029236E-05
615	604.75	-0.0009435237	2.777887E-05
615	605	-0.0009361442	2.611724E-05
615	605.25	-0.0009407449	1.943956E-05
615	605.5	-0.0009455665	2.529116E-05
615	605.75	-0.0008990617	2.002936E-05
615	606	-0.0008372454	1.946697E-05
615	606.25	-0.0008130267	2.051616E-05
615	606.5	-0.000786103	2.269114E-05
615	606.75	-0.0007037851	2.172491E-05
615	607	-0.0007052575	2.44521E-05
615	607.25	-0.0006321598	2.060048E-05
615	607.5	-0.0005253291	2.028206E-05
615	607.75	-0.0004367544	2.314981E-05
615	608	-0.0003597367	3.08665E-05
615	608.25	-0.0002645368	2.183237E-05
615	608.5	-0.0001036372	2.053716E-05
615	608.75	2.559055E-05	2.05203E-05
615	609	0.0001520396	1.99089E-05
615	609.25	0.000319841	2.020431E-05
615	609.5	0.0004709691	1.951349E-05
615	609.75	0.0006262931	2.49393E-05
615	610	0.000816602	2.1405E-05
615	610.25	0.0009474864	3.230784E-05
615	610.5	0.001036467	1.887196E-05
615	610.75	0.001087296	2.727675E-05
615	611	0.001229315	2.49276E-05
615	611.25	0.001207617	2.646394E-05
615	611.5	0.001241056	2.155667E-05
615	611.75	0.001257362	2.415051E-05
615	612	0.001285151	2.541938E-05
615	612.25	0.001240836	2.179691E-05
615	612.5	0.001242234	2.845859E-05
615	612.75	0.00125589	2.412497E-05
615	613	0.001217279	2.130499E-05
615	613.25	0.001249761	2.448947E-05
615	613.5	0.001230585	3.094497E-05
615	613.75	0.001267208	2.81444E-05
615	614	0.001248252	2.698656E-05
615	614.25	0.001234266	2.17181E-05
615	614.5	0.001208133	2.84891E-05
615	614.75	0.001218494	2.131174E-05
615	615	0.001228082	2.242077E-05
615	615.25	0.00117751	2.846145E-05
615	615.5	0.0011419	2.400815E-05
615	615.75	0.001111644	2.420942E-05
615	616	0.00104519	2.927536E-05
615	616.25	0.001016683	2.442499E-05
615	616.5	0.0009043862	2.410014E-05
615	616.75	0.0008821182	1.992629E-05
615	617	0.0008068302	2.190456E-05
615	617.25	0.0006869693	2.365235E-05
615	617.5	0.0006296061	2.45652E-05
615	617.75	0.0005543732	2.952365E-05
615	618	0.0004531733	2.49541E-05
615	618.25	0.000316363	2.27999E-05
615	618.5	0.0002017839	2.106765E-05
615	618.75	3.976117E-05	2.652806E-05
615	619	-1.997603E-05	1.719682E-05
615	619.25	-0.0001619756	2.388877E-05
615	619.5	-0.0002925284	1.710777E-05
615	619.75	-0.0003968564	2.456605E-05
615	620	-0.00050308	1.979097E-05
615	620.25	-0.0005616024	2.153429E-05
615	620.5	-0.0006714698	2.208496E-05
615	620.75	-0.0007404821	2.868316E-05
615	621	-0.0008405955	1.938192E-05
615	621.25	-0.0008794265	2.028155E-05
615	621.5	-0.0009420343	2.272727E-05
615	621.75	-0.0009935264	2.287056E-05
615	622	-0.001019861	2.17575E-05
615	622.25	-0.001024241	2.291713E-05
615	622.5	-0.001052454	1.985316E-05
615	622.75	-0.001030977	1.795922E-05
615	623	-0.001135379	2.300628E-05
615	623.25	-0.001074666	2.068967E-05
615	623.5	-0.001123674	2.062109E-05
615	623.75	-0.001151114	2.619885E-05
615	624	-0.001104847	2.277383E-05
615	624.25	-0.001181534	2.309864E-05
615	624.5	-0.001122864	1.937819E-05
615	624.75	-0.001172645	1.906492E-05
615	625	-0.001139943	2.511807E-05
615	625.25	-0.001125533	2.358517E-05
615	625.5	-0.001148666	2.721293E-05
615	625.75	-0.00114504	2.112694E-05
615	626	-0.001164658	2.068873E-05
615	626.25	-0.001167326	2.890931E-05
615	626.5	-0.001167952	2.353252E-05
615	626.75	-0.001153597	2.45719E-05
615	627	-0.001183319	1.882834E-05
615	627.25	-0.001164216	1.858674E-05
615	627.5	-0.001143439	2.333262E-05
615	627.75	-0.001141285	2.195992E-05
615	628	-0.001124097	2.869598E-05
615	628.25	-0.001189134	2.512058E-05
615	628.5	-0.001154389	2.089032E-05
615	628.75	-0.001160664	1.812243E-05
615	629	-0.001157683	2.082379E-05
615	629.25	-0.001155254	2.293448E-05
615	629.5	-0.001193293	2.751666E-05
615	629.75	-0.001147322	2.352289E-05
615	630	-0.001127004	1.595625E-05
615	630.25	-0.001216683	1.8683E-05
615	630.5	-0.001198611	2.739022E-05
615	630.75	-0.001181791	2.05694E-05
615	631	-0.001149696	2.419558E-05
615	631.25	-0.001137917	2.788571E-05
615	631.5	-0.00116762	2.620976E-05
615	631.75	-0.001158363	1.429596E-05
615	632	-0.001176159	2.603952E-05
615	632.25	-0.001212101	2.054316E-05
615	632.5	-0.001205807	2.07204E-05
615	632.75	-0.001199071	2.091345E-05
615	633	-0.001123655	2.316584E-05
615	633.25	-0.001164142	2.226031E-05
615	633.5	-0.001155474	1.912278E-05
615	633.75	-0.001190863	2.005348E-05
615	634	-0.00117649	2.657267E-05
615	634.25	-0.001143253	1.966293E-05
615	634.5	-0.001191746	2.129554E-05
615	634.75	-0.001195353	2.18547E-05
673	645	-0.001042388	2.992702E-05
673	645.25	-0.001028917	2.584241E-05
673	645.5	-0.0009885062	3.625663E-05
673	645.75	-0.001028	3.231256E-05
673	646	-0.0009618912	2.968467E-05
673	646.25	-0.0009986608	2.740726E-05
673	646.5	-0.0009796246	3.284595E-05
673	646.75	-0.001007157	2.924115E-05
673	647	-0.0009838876	3.445043E-05
673	647.25	-0.001036792	2.447409E-05
673	647.5	-0.0009704468	3.553028E-05
673	647.75	-0.0009960256	3.085412E-05
673	648	-0.0009992526	2.984126E-05
673	648.25	-0.001013108	3.962472E-05
673	648.5	-0.0009935387	2.7065E-05
673	648.75	-0.0009552889	2.496375E-05
673	649	-0.0009498413	2.723403E-05
673	649.25	-0.0009599368	3.232997E-05
673	649.5	-0.000938769	3.798346E-05
673	649.75	-0.001002923	2.570734E-05
673	650	-0.0009870549	3.117775E-05
673	650.25	-0.0009868774	2.17359E-05
673	650.5	-0.0009857821	3.411202E-05
673	650.75	-0.0009990746	2.426441E-05
673	651	-0.0009758939	2.951835E-05
673	651.25	-0.0009740585	3.463585E-05
673	651.5	-0.0009961438	2.649317E-05
673	651.75	-0.000920621	2.489429E-05
673	652	-0.0009561769	2.923915E-05
673	652.25	-0.0009954924	2.731891E-05
673	652.5	-0.0009238778	2.532418E-05
673	652.75	-0.001015239	3.22537E-05
673	653	-0.0009504042	3.280737E-05
673	653.25	-0.0009726967	3.436615E-05
673	653.5	-0.0009557625	2.712732E-05
673	653.75	-0.001000703	2.642137E-05
673	654	-0.0009801869	2.574514E-05
673	654.25	-0.000941493	3.515062E-05
673	654.5	-0.0009241442	2.601125E-05
673	654.75	-0.0009419077	2.178945E-05
673	655	-0.0009462893	2.928527E-05
673	655.25	-0.0009445127	2.92518E-05
673	655.5	-0.000971217	2.255671E-05
673	655.75	-0.0008940952	3.197533E-05
673	656	-0.0009491018	2.350381E-05
673	656.25	-0.0009344475	3.047129E-05
673	656.5	-0.0009304804	3.16041E-05
673	656.75	-0.0009337666	3.615395E-05
673	657	-0.0009375856	3.17917E-05
673	657.25	-0.000947385	3.056242E-05
673	657.5	-0.0009111186	2.984106E-05
673	657.75	-0.0009523883	3.029536E-05
673	658	-0.0009629278	3.268941E-05
673	658.25	-0.0009185201	2.840534E-05
673	658.5	-0.0009134872	3.610616E-05
673	658.75	-0.0009481548	2.211667E-05
673	659	-0.0009025035	3.013354E-05
673	659.25	-0.0009077142	3.642929E-05
673	659.5	-0.0009443654	2.916356E-05
673	659.75	-0.0009523588	2.840014E-05
673	660	-0.0009531288	3.389798E-05
673	660.25	-0.0008734315	2.948141E-05
673	660.5	-0.0009059678	3.043692E-05
673	660.75	-0.0008907804	3.502775E-05
673	661	-0.0008768066	4.134791E-05
673	661.25	-0.000851583	3.189969E-05
673	661.5	-0.0009019119	4.105798E-05
673	661.75	-0.0008353595	3.574794E-05
673	662	-0.000900846	3.216287E-05
673	662.25	-0.0008371062	3.303208E-05
673	662.5	-0.0008321621	3.372468E-05
673	662.75	-0.0008499547	2.823997E-05
673	663	-0.0008019649	3.210791E-05
673	663.25	-0.0008023792	3.658548E-05
673	663.5	-0.0007677116	2.342098E-05
673	663.75	-0.0006850537	2.964929E-05
673	664	-0.0006371229	2.993537E-05
673	664.25	-0.0005732054	3.287425E-05
673	664.5	-0.0004866101	2.526713E-05
673	664.75	-0.0004482122	2.1002E-05
673	665	-0.0002640678	3.712727E-05
673	665.25	-0.0002007126	3.533171E-05
673	665.5	-6.257471E-05	2.36693E-05
673	665.75	0.0001212148	3.027392E-05
673	666	0.000368656	2.773393E-05
673	666.25	0.0005770774	2.179395E-05
673	666.5	0.0007914196	3.319328E-05
673	666.75	0.00105393	3.50991E-05
673	667	0.001342049	3.306585E-05
673	667.25	0.001654977	3.341169E-05
673	667.5	0.002021728	2.515949E-05
673	667.75	0.002179021	2.326753E-05
673	668	0.002370094	2.525017E-05
673	668.25	0.002513531	3.218415E-05
673	668.5	0.002540384	4.463199E-05
673	668.75	0.002666679	4.202758E-05
673	669	0.002575909	2.894658E-05
673	669.25	0.002555275	3.277367E-05
673	669.5	0.002457015	3.55709E-05
673	669.75	0.002548702	2.824373E-05
673	670	0.00256457	3.014764E-05
673	670.25	0.002488219	3.506502E-05
673	670.5	0.00252561	3.725462E-05
673	670.75	0.002550508	3.67526E-05
673	671	0.002462135	4.74456E-05
673	671.25	0.002489847	2.462928E-05
673	671.5	0.002468649	3.361091E-05
673	671.75	0.002486086	3.778388E-05
673	672	0.002479691	3.0614E-05
673	672.25	0.002412843	3.105067E-05
673	672.5	0.002404376	3.209172E-05
673	672.75	0.002412961	3.160705E-05
673	673	0.002311118	3.658892E-05
673	673.25	0.002243619	3.347059E-05
673	673.5	0.002295487	2.333174E-05
673	673.75	0.002322369	3.405491E-05
673	674	0.002245424	3.903288E-05
673	674.25	0.002187161	3.145258E-05
673	674.5	0.002241901	4.018836E-05
673	674.75	0.002148733	2.547613E-05
673	675	0.002103644	3.817553E-05
673	675.25	0.001899545	4.127465E-05
673	675.5	0.001803683	3.745143E-05
673	675.75	0.001551387	2.767582E-05
673	676	0.00135913	2.674612E-05
673	676.25	0.0009641067	2.849232E-05
673	676.5	0.000616304	3.149605E-05
673	676.75	0.0002016522	3.229352E-05
673	677	-8.722744E-06	2.543305E-05
673	677.25	-0.0003046266	2.823317E-05
673	677.5	-0.0004370504	3.126615E-05
673	677.75	-0.0006163098	2.906504E-05
673	678	-0.0006941714	2.443863E-05
673	678.25	-0.0007497402	2.48135E-05
673	678.5	-0.0008308584	2.971565E-05
673	678.75	-0.0008954864	3.038706E-05
673	679	-0.0009022363	2.895682E-05
673	679.25	-0.00093794	3.33387E-05
673	679.5	-0.0009664794	2.694419E-05
673	679.75	-0.0009467033	3.403041E-05
673	680	-0.001004137	2.403647E-05
673	680.25	-0.0009794761	2.67906E-05
673	680.5	-0.0009189928	2.320661E-05
673	680.75	-0.0009801867	2.871646E-05
673	681	-0.001046917	3.574198E-05
673	681.25	-0.001006565	3.453383E-05
673	681.5	-0.001022581	3.230736E-05
673	681.75	-0.001011657	2.548249E-05
673	682	-0.001077439	2.984312E-05
673	682.25	-0.001036525	3.316307E-05
673	682.5	-0.001037117	3.583477E-05
673	682.75	-0.00104289	4.382447E-05
673	683	-0.001028235	2.816949E-05
673	683.25	-0.0009980381	2.088415E-05
673	683.5	-0.001034304	1.92991E-05
673	683.75	-0.0009508474	3.146415E-05
673	684	-0.00101062	3.34967E-05
673	684.25	-0.001015031	3.40223E-05
673	684.5	-0.0009775217	3.770568E-05
673	684.75	-0.001044903	3.437399E-05
673	685	-0.001052985	3.064514E-05
673	685.25	-0.00101361	2.76065E-05
673	685.5	-0.001012515	4.1378E-05
673	685.75	-0.0009967942	3.562472E-05
673	686	-0.001018613	2.457828E-05
673	686.25	-0.0009968238	2.290232E-05
673	686.5	-0.001039426	3.232219E-05
673	686.75	-0.001014735	2.837432E-05
673	687	-0.001026784	4.203305E-05
673	687.25	-0.001098044	2.653252E-05
673	687.5	-0.001016482	3.629481E-05
673	687.75	-0.001004669	2.344126E-05
673	688	-0.0009951364	2.381626E-05
673	688.25	-0.001055353	3.128732E-05
673	688.5	-0.001027672	2.676807E-05
673	688.75	-0.0009888009	3.348918E-05
673	689	-0.001081494	2.681658E-05
673	689.25	-0.001035281	3.27677E-05
673	689.5	-0.001047833	3.166209E-05
673	689.75	-0.001022432	2.29061E-05
673	690	-0.001097422	2.927966E-05
673	690.25	-0.001008044	2.973507E-05
673	690.5	-0.001035518	3.00384E-05
673	690.75	-0.001017163	2.71595E-05
673	691	-0.00100686	2.525739E-05
673	691.25	-0.001078061	2.73018E-05
673	691.5	-0.001096505	3.085045E-05
673	691.75	-0.0009612091	3.239578E-05
673	692	-0.00104064	2.598049E-05
673	692.25	-0.001054732	3.811061E-05
673	692.5	-0.001069653	1.893383E-05
673	692.75	-0.001089163	3.459231E-05
673	693	-0.0009748573	3.562017E-05
673	693.25	-0.001048307	3.980068E-05
673	693.5	-0.0009924724	3.238656E-05
673	693.75	-0.0009794463	1.896109E-05
673	694	-0.001019384	2.081192E-05
673	694.25	-0.001032203	2.325417E-05
673	694.5	-0.001010532	2.206135E-05
673	694.75	-0.001005085	3.180784E-05
870	830	-0.001232511	3.993841E-05
870	830.25	-0.001215755	2.26062E-05
870	830.5	-0.001247433	3.809231E-05
870	830.75	-0.001213475	3.122698E-05
870	831	-0.001170607	1.75247E-05
870	831.25	-0.001190028	3.332454E-05
870	831.5	-0.001218242	2.277172E-05
870	831.75	-0.001200716	3.435503E-05
870	832	-0.001211907	2.317493E-05
870	832.25	-0.001224222	1.799911E-05
870	832.5	-0.001227035	3.122824E-05
870	832.75	-0.001220551	2.192354E-05
870	833	-0.001195268	2.905163E-05
870	833.25	-0.001228989	3.088958E-05
870	833.5	-0.001184492	2.567228E-05
870	833.75	-0.001222269	2.806403E-05
870	834	-0.001188252	3.147769E-05
870	834.25	-0.001147959	2.980926E-05
870	834.5	-0.001110213	1.785147E-05
870	834.75	-0.00115992	1.957E-05
870	835	-0.001138723	2.298068E-05
870	835.25	-0.001153614	2.845106E-05
870	835.5	-0.001163058	3.383445E-05
870	835.75	-0.001164124	2.252559E-05
870	836	-0.001183219	3.501839E-05
870	836.25	-0.001119598	2.778847E-05
870	836.5	-0.001221884	2.805177E-05
870	836.75	-0.001198969	2.946092E-05
870	837	-0.001224163	2.597426E-05
870	837.25	-0.001194913	2.123778E-05
870	837.5	-0.001221913	2.492033E-05
870	837.75	-0.001215815	2.306467E-05
870	838	-0.001218952	2.059644E-05
870	838.25	-0.001200538	2.726805E-05
870	838.5	-0.001196601	3.487934E-05
870	838.75	-0.001152075	2.297924E-05
870	839	-0.001241364	1.99126E-05
870	839.25	-0.001208768	3.074077E-05
870	839.5	-0.001202492	2.533276E-05
870	839.75	-0.001179785	2.730989E-05
870	840	-0.001212291	2.746622E-05
870	840.25	-0.001227271	2.055851E-05
870	840.5	-0.001209005	3.083334E-05
870	840.75	-0.001144821	2.851168E-05
870	841	-0.001152992	3.708777E-05
870	841.25	-0.001136087	2.62213E-05
870	841.5	-0.001167617	2.089385E-05
870	841.75	-0.001183574	2.227849E-05
870	842	-0.001148137	2.789732E-05
870	842.25	-0.00121608	3.060646E-05
870	842.5	-0.001250304	2.341049E-05
870	842.75	-0.001247817	3.126075E-05
870	843	-0.001210988	2.936304E-05
870	843.25	-0.001194853	2.656696E-05
870	843.5	-0.00122733	2.60868E-05
870	843.75	-0.001234199	3.602433E-05
870	844	-0.001261613	2.378287E-05
870	844.25	-0.001243968	2.848015E-05
870	844.5	-0.001223985	1.810904E-05
870	844.75	-0.001271679	2.111723E-05
870	845	-0.00119059	3.18118E-05
870	845.25	-0.001221231	3.022293E-05
870	845.5	-0.001241037	3.267176E-05
870	845.75	-0.001169778	2.947432E-05
870	846	-0.001257497	2.546611E-05
870	846.25	-0.001235767	2.749015E-05
870	846.5	-0.001200803	2.858525E-05
870	846.75	-0.001212083	3.59368E-05
870	847	-0.001180376	2.244041E-05
870	847.25	-0.001231711	1.79405E-05
870	847.5	-0.001221823	2.52323E-05
870	847.75	-0.001257675	1.949391E-05
870	848	-0.00116809	2.603113E-05
870	848.25	-0.001215902	3.188457E-05
870	848.5	-0.001200448	2.492257E-05
870	848.75	-0.001177859	3.445655E-05
870	849	-0.001189672	2.742485E-05
870	849.25	-0.001256875	3.333615E-05
870	849.5	-0.001206221	2.101646E-05
870	849.75	-0.001178451	2.317249E-05
870	850	-0.00125501	3.362156E-05
870	850.25	-0.001196007	2.99503E-05
870	850.5	-0.001173093	3.631793E-05
870	850.75	-0.001223273	2.669759E-05
870	851	-0.001199056	3.091183E-05
870	851.25	-0.001195533	2.002479E-05
870	851.5	-0.001182004	2.220973E-05
870	851.75	-0.001216257	2.057369E-05
870	852	-0.001245862	2.617369E-05
870	852.25	-0.001190737	2.934092E-05
870	852.5	-0.001204799	3.218126E-05
870	852.75	-0.001208648	2.584449E-05
870	853	-0.001199944	2.329161E-05
870	853.25	-0.001201128	2.511308E-05
870	853.5	-0.0011942	2.93836E-05
870	853.75	-0.00119272	2.177008E-05
870	854	-0.001205983	2.734589E-05
870	854.25	-0.001168947	3.236623E-05
870	854.5	-0.001191003	3.324616E-05
870	854.75	-0.001166845	2.60237E-05
870	855	-0.001150444	3.090915E-05
870	855.25	-0.001141918	2.910322E-05
870	855.5	-0.001218092	2.836537E-05
870	855.75	-0.001180167	3.602047E-05
870	856	-0.001192365	2.11199E-05
870	856.25	-0.001179694	2.485306E-05
870	856.5	-0.001134546	1.908534E-05
870	856.75	-0.001167852	3.94459E-05
870	857	-0.001220934	3.434472E-05
870	857.25	-0.001154293	2.761633E-05
870	857.5	-0.001164418	2.967803E-05
870	857.75	-0.001138069	2.41119E-05
870	858	-0.001123296	3.436402E-05
870	858.25	-0.001143161	2.076845E-05
870	858.5	-0.001118293	2.149875E-05
870	858.75	-0.001103964	3.003775E-05
870	859	-0.001093751	3.466807E-05
870	859.25	-0.001111662	2.470898E-05
870	859.5	-0.00104878	2.431726E-05
870	859.75	-0.001026458	2.490054E-05
870	860	-0.001010323	3.006899E-05
870	860.25	-0.001055767	2.710203E-05
870	860.5	-0.0009708304	2.653978E-05
870	860.75	-0.0009416396	3.554456E-05
870	861	-0.0009883565	2.94684E-05
870	861.25	-0.0008930873	3.216618E-05
870	861.5	-0.0008673014	4.039693E-05
870	861.75	-0.0008305317	2.998958E-05
870	862	-0.0008253214	3.666623E-05
870	862.25	-0.0007320651	2.737541E-05
870	862.5	-0.000641207	2.694887E-05
870	862.75	-0.0005611548	3.888312E-05
870	863	-0.0005459081	4.160612E-05
870	863.25	-0.0003854779	2.716879E-05
870	863.5	-0.0003343794	3.415534E-05
870	863.75	-0.0001387191	2.183561E-05
870	864	-3.068106E-06	3.04017E-05
870	864.25	0.0001367277	3.394282E-05
870	864.5	0.0002862639	2.427564E-05
870	864.75	0.0004094514	3.587472E-05
870	865	0.0005776684	3.290137E-05
870	865.25	0.0007698363	3.088643E-05
870	865.5	0.0008694877	2.409038E-05
870	865.75	0.001032435	2.762247E-05
870	866	0.00105979	2.474049E-05
870	866.25	0.001089514	2.832555E-05
870	866.5	0.001130221	2.695203E-05
870	866.75	0.001168738	2.546773E-05
870	867	0.001237422	2.70744E-05
870	867.25	0.001205863	3.363615E-05
870	867.5	0.001226793	2.391025E-05
870	867.75	0.001215603	3.101216E-05
870	868	0.001288964	3.315425E-05
870	868.25	0.001212672	2.969975E-05
870	868.5	0.001280557	2.550144E-05
870	868.75	0.001375353	2.895653E-05
870	869	0.001377958	3.234625E-05
870	869.25	0.001401376	3.858082E-05
870	869.5	0.001427458	3.021394E-05
870	869.75	0.00141153	2.411316E-05
870	870	0.001518849	2.553948E-05
870	870.25	0.001559201	3.121161E-05
870	870.5	0.001641031	2.370351E-05
870	870.75	0.001575988	3.10126E-05
870	871	0.001580399	2.815314E-05
870	871.25	0.001652132	2.760541E-05
870	871.5	0.001688872	3.238852E-05
870	871.75	0.001646359	2.366426E-05
870	872	0.00159156	3.418265E-05
870	872.25	0.001620839	2.868713E-05
870	872.5	0.001610626	2.457001E-05
870	872.75	0.001533859	2.309562E-05
870	873	0.001409517	2.768069E-05
870	873.25	0.001373191	2.743496E-05
870	873.5	0.001285412	2.273175E-05
870	873.75	0.001131879	3.404964E-05
870	874	0.0009579476	3.218339E-05
870	874.25	0.0007601846	3.490581E-05
870	874.5	0.0005811912	2.707913E-05
870	874.75	0.0003128789	3.928692E-05
870	875	3.195479E-05	2.485667E-05
870	875.25	-0.0001385413	3.19458E-05
870	875.5	-0.0003131821	3.498685E-05
870	875.75	-0.000432254	2.205803E-05
870	876	-0.0005887171	2.033451E-05
870	876.25	-0.0007603084	3.071132E-05
870	876.5	-0.0008946268	2.739661E-05
870	876.75	-0.0008834065	2.353537E-05
870	877	-0.0009276662	3.160741E-05
870	877.25	-0.001004669	2.63502E-05
870	877.5	-0.001067165	2.811203E-05
870	877.75	-0.001065182	2.56095E-05
870	878	-0.001038922	2.707624E-05
870	878.25	-0.001086734	2.006694E-05
870	878.5	-0.001123296	3.128398E-05
870	878.75	-0.001118293	2.306958E-05
870	879	-0.001120928	2.564344E-05
870	879.25	-0.001128714	2.134745E-05
870	879.5	-0.001174277	3.169358E-05
870	879.75	-0.001170309	2.391563E-05
870	880	-0.001177858	2.423649E-05
870	880.25	-0.00118452	2.646412E-05
870	880.5	-0.001141533	3.378096E-05
870	880.75	-0.001139076	2.682565E-05
870	881	-0.001169776	2.878241E-05
870	881.25	-0.001119625	2.776933E-05
870	881.5	-0.001149822	2.947753E-05
870	881.75	-0.00111403	3.203126E-05
870	882	-0.001164388	2.972365E-05
870	882.25	-0.001155506	2.421608E-05
870	882.5	-0.001148105	2.686152E-05
870	882.75	-0.001184341	2.55954E-05
870	883	-0.001205687	3.039016E-05
870	883.25	-0.001203378	2.74082E-05
870	883.5	-0.001168739	3.580306E-05
870	883.75	-0.001176082	1.993448E-05
870	884	-0.001129365	3.359162E-05
870	884.25	-0.001169628	3.477246E-05
870	884.5	-0.0011537	2.607492E-05
870	884.75	-0.00122114	3.637312E-05
870	885	-0.001228068	2.747239E-05
870	885.25	-0.00126614	2.149796E-05
870	885.5	-0.001230762	2.721748E-05
870	885.75	-0.001275761	2.72549E-05
870	886	-0.00123535	3.003193E-05
870	886.25	-0.001217736	2.843157E-05
870	886.5	-0.001209624	1.675383E-05
870	886.75	-0.001259272	3.106716E-05
870	887	-0.00123837	3.039837E-05
870	887.25	-0.00123692	2.946501E-05
870	887.5	-0.001231472	2.076644E-05
870	887.75	-0.001224219	2.820792E-05
870	888	-0.001243433	3.074674E-05
870	888.25	-0.001186561	3.013961E-05
870	888.5	-0.001251337	2.189861E-05
870	888.75	-0.001245239	2.943633E-05
870	889	-0.001251811	2.71921E-05
870	889.25	-0.001189167	3.043315E-05
870	889.5	-0.001259153	2.957614E-05
870	889.75	-0.00126469	2.952419E-05
870	890	-0.001228393	2.985875E-05
870	890.25	-0.001243137	3.502965E-05
870	890.5	-0.001180404	2.546351E-05
870	890.75	-0.001271825	3.456444E-05
870	891	-0.001216196	2.268144E-05
870	891.25	-0.001257229	2.744914E-05
870	891.5	-0.001231473	2.3352E-05
870	891.75	-0.001217203	2.193616E-05
870	892	-0.001267147	2.342747E-05
870	892.25	-0.001262055	1.640823E-05
870	892.5	-0.001234404	3.102413E-05
870	892.75	-0.001255808	2.594153E-05
870	893	-0.001271795	2.19867E-05
870	893.25	-0.001243996	2.332513E-05
870	893.5	-0.001208588	2.800116E-05
870	893.75	-0.001251397	2.907166E-05
870	894	-0.001232983	2.313083E-05
870	894.25	-0.001251101	2.892184E-05
870	894.5	-0.001242545	3.773908E-05
870	894.75	-0.001258799	2.532733E-05
870	895	-0.001187924	2.118682E-05
870	895.25	-0.001204178	2.046093E-05
870	895.5	-0.001224546	2.283722E-05
870	895.75	-0.001252108	3.141521E-05
870	896	-0.001232036	2.850759E-05
870	896.25	-0.001223835	2.570487E-05
870	896.5	-0.001249651	3.520017E-05
870	896.75	-0.001196214	2.361403E-05
870	897	-0.001239704	2.401359E-05
870	897.25	-0.001236003	2.482036E-05
870	897.5	-0.001240444	2.656928E-05
870	897.75	-0.001265638	2.798781E-05
870	898	-0.001225316	3.714128E-05
870	898.25	-0.001164093	2.490508E-05
870	898.5	-0.001212645	2.66464E-05
870	898.75	-0.001176615	2.965609E-05
870	899	-0.00126774	2.775276E-05
870	899.25	-0.001266911	2.213254E-05
870	899.5	-0.001249207	2.557968E-05
870	899.75	-0.00121901	3.199244E-05
940	900	-0.001039366	2.420068E-05
940	900.25	-0.00101435	2.499558E-05
940	900.5	-0.00105408	2.853085E-05
940	900.75	-0.001042771	2.690388E-05
940	901	-0.001012781	1.899027E-05
940	901.25	-0.00106379	2.497948E-05
940	901.5	-0.001036613	2.037281E-05
940	901.75	-0.00105254	2.169124E-05
940	902	-0.001026369	2.200481E-05
940	902.25	-0.001019027	2.034063E-05
940	902.5	-0.001013254	1.768695E-05
940	902.75	-0.0009979191	3.097252E-05
940	903	-0.001008044	2.173935E-05
940	903.25	-0.0009985702	2.459724E-05
940	903.5	-0.0009798303	2.294028E-05
940	903.75	-0.0009818728	1.895406E-05
940	904	-0.0008750575	3.239366E-05
940	904.25	-0.0008115546	1.667256E-05
940	904.5	-0.0007008905	3.650483E-05
940	904.75	-0.0005999665	2.652706E-05
940	905	-0.0006376541	2.81158E-05
940	905.25	-0.0006615452	1.724459E-05
940	905.5	-0.0007778933	2.117259E-05
940	905.75	-0.00086363	1.622624E-05
940	906	-0.0009264816	2.202664E-05
940	906.25	-0.000985514	1.494769E-05
940	906.5	-0.0009660636	1.945659E-05
940	906.75	-0.0009545767	2.260046E-05
940	907	-0.001002655	2.27218E-05
940	907.25	-0.0009755963	2.610421E-05
940	907.5	-0.001032586	2.20035E-05
940	907.75	-0.001002004	2.862652E-05
940	908	-0.001025629	2.397768E-05
940	908.25	-0.001044606	2.246436E-05
940	908.5	-0.001040787	2.569724E-05
940	908.75	-0.001036612	2.740171E-05
940	909	-0.001008991	1.83361E-05
940	909.25	-0.001002981	2.36247E-05
940	909.5	-0.001053546	2.687416E-05
940	909.75	-0.0010068	1.958411E-05
940	910	-0.001035191	2.375204E-05
940	910.25	-0.001026842	2.093958E-05
940	910.5	-0.001016036	1.837657E-05
940	910.75	-0.00106	2.501897E-05
940	911	-0.00103821	2.973086E-05
940	911.25	-0.00104277	2.796453E-05
940	911.5	-0.001075691	1.80356E-05
940	911.75	-0.001058727	2.234414E-05
940	912	-0.0009945724	2.237336E-05
940	912.25	-0.001038862	2.39014E-05
940	912.5	-0.0009760397	2.821119E-05
940	912.75	-0.001013224	2.613989E-05
940	913	-0.0009989837	2.28417E-05
940	913.25	-0.0009886515	2.287999E-05
940	913.5	-0.0009868454	2.734788E-05
940	913.75	-0.0009885031	2.006371E-05
940	914	-0.000940987	2.102183E-05
940	914.25	-0.0009662106	2.559624E-05
940	914.5	-0.0009253259	2.108906E-05
940	914.75	-0.0008974083	2.604093E-05
940	915	-0.000880474	2.398101E-05
940	915.25	-0.0008077048	2.063574E-05
940	915.5	-0.0006895509	2.966438E-05
940	915.75	-0.0005632851	2.350205E-05
940	916	-0.0004841212	2.470814E-05
940	916.25	-0.0003771877	2.653578E-05
940	916.5	-0.0002648068	2.26629E-05
940	916.75	-0.0002661094	2.75246E-05
940	917	-0.0002325077	1.837335E-05
940	917.25	-0.0003866021	2.394661E-05
940	917.5	-0.0005063842	2.383535E-05
940	917.75	-0.0005649429	2.203978E-05
940	918	-0.0005998771	2.448851E-05
940	918.25	-0.0006693601	2.114722E-05
940	918.5	-0.0007363564	2.126317E-05
940	918.75	-0.0007686852	2.158117E-05
940	919	-0.0007492644	2.225381E-05
940	919.25	-0.0007890831	2.821633E-05
940	919.5	-0.0008348526	2.238717E-05
940	919.75	-0.0008006587	1.843157E-05
940	920	-0.0008420467	2.071781E-05
940	920.25	-0.0008675664	1.713232E-05
940	920.5	-0.0008459547	2.616322E-05
940	920.75	-0.0008205238	1.373783E-05
940	921	-0.0008769215	2.178878E-05
940	921.25	-0.0008924344	2.841112E-05
940	921.5	-0.0008581223	2.85598E-05
940	921.75	-0.0008972307	2.16927E-05
940	922	-0.0009054314	2.264181E-05
940	922.25	-0.0008547475	2.705305E-05
940	922.5	-0.0008996882	2.396243E-05
940	922.75	-0.0008468725	2.719735E-05
940	923	-0.0008519647	2.376187E-05
940	923.25	-0.0008239583	1.867892E-05
940	923.5	-0.00090481	2.713739E-05
940	923.75	-0.0008634517	2.525694E-05
940	924	-0.0008949515	3.075263E-05
940	924.25	-0.0008928793	2.378654E-05
940	924.5	-0.0008895338	1.975155E-05
940	924.75	-0.0008839682	2.715209E-05
940	925	-0.0008559024	2.951738E-05
940	925.25	-0.0008808301	2.26491E-05
940	925.5	-0.0008892676	2.22587E-05
940	925.75	-0.0008628303	2.355395E-05
940	926	-0.0008855372	2.309843E-05
940	926.25	-0.000860669	2.116635E-05
940	926.5	-0.0008857742	1.9848E-05
940	926.75	-0.0008783138	2.170841E-05
940	927	-0.0009008136	2.764158E-05
940	927.25	-0.0008621199	2.619507E-05
940	927.5	-0.0008830803	2.183358E-05
940	927.75	-0.0008825177	2.586259E-05
940	928	-0.0008632747	2.935924E-05
940	928.25	-0.0008606694	1.879517E-05
940	928.5	-0.0007801138	2.222665E-05
940	928.75	-0.0007948275	2.334449E-05
940	929	-0.0007745186	2.187726E-05
940	929.25	-0.0007717355	2.705133E-05
940	929.5	-0.0007829262	1.819509E-05
940	929.75	-0.0007073739	1.920616E-05
940	930	-0.0007010979	2.580157E-05
940	930.25	-0.0006199204	2.343342E-05
940	930.5	-0.0006042594	2.4634E-05
940	930.75	-0.0005347466	1.878728E-05
940	931	-0.0005258058	2.530058E-05
940	931.25	-0.0004670693	2.096485E-05
940	931.5	-0.00039504	2.539061E-05
940	931.75	-0.0003228924	3.267112E-05
940	932	-0.0003199022	2.61811E-05
940	932.25	-0.0001952943	2.441898E-05
940	932.5	-0.0001391926	3.881752E-05
940	932.75	-1.547269E-05	2.569849E-05
940	933	5.084288E-05	2.603086E-05
940	933.25	0.0001842143	2.331721E-05
940	933.5	0.0003710825	2.10083E-05
940	933.75	0.0005985394	2.413608E-05
940	934	0.0008245458	2.107687E-05
940	934.25	0.001133032	1.835694E-05
940	934.5	0.001387134	2.936536E-05
940	934.75	0.00183136	2.414892E-05
940	935	0.002290685	2.576944E-05
940	935.25	0.00278524	2.549013E-05
940	935.5	0.003426607	2.883034E-05
940	935.75	0.004165436	3.221538E-05
940	936	0.005073072	3.13289E-05
940	936.25	0.00598426	3.518425E-05
940	936.5	0.007053985	3.810131E-05
940	936.75	0.008192604	3.715733E-05
940	937	0.009442742	4.35542E-05
940	937.25	0.01092646	3.013717E-05
940	937.5	0.0125454	3.055787E-05
940	937.75	0.01383962	3.460072E-05
940	938	0.01473651	3.084758E-05
940	938.25	0.01510296	3.490135E-05
940	938.5	0.01503034	4.257293E-05
940	938.75	0.01467442	3.763949E-05
940	939	0.01424263	4.232725E-05
940	939.25	0.01369467	3.979615E-05
940	939.5	0.01309658	4.568154E-05
940	939.75	0.01258	4.867263E-05
940	940	0.01206834	4.933294E-05
940	940.25	0.01163343	5.684659E-05
940	940.5	0.01129718	4.780752E-05
940	940.75	0.01089662	4.405688E-05
940	941	0.01055729	3.384986E-05
940	941.25	0.01025676	3.711678E-05
940	941.5	0.009862566	5.141513E-05
940	941.75	0.009422485	3.867E-05
940	942	0.009086852	4.537061E-05
940	942.25	0.00871418	4.023811E-05
940	942.5	0.008391068	3.810505E-05
940	942.75	0.008021034	4.432892E-05
940	943	0.007828924	4.391881E-05
940	943.25	0.007643715	3.838712E-05
940	943.5	0.007391508	4.298439E-05
940	943.75	0.007126008	3.498183E-05
940	944	0.006950538	3.73334E-05
940	944.25	0.006734806	3.645851E-05
940	944.5	0.006471911	2.464652E-05
940	944.75	0.006100899	3.424586E-05
940	945	0.005559864	2.637685E-05
940	945.25	0.004920007	2.762238E-05
940	945.5	0.00414077	2.901459E-05
940	945.75	0.00334664	1.800505E-05
940	946	0.002645412	2.908981E-05
940	946.25	0.001962242	2.649112E-05
940	946.5	0.001419964	2.413844E-05
940	946.75	0.001016357	2.463382E-05
940	947	0.0005518513	2.95901E-05
940	947.25	0.0001737931	2.722316E-05
940	947.5	-2.953512E-05	2.329115E-05
940	947.75	-0.0001905276	2.681715E-05
940	948	-0.0003093624	2.477407E-05
940	948.25	-0.000436901	2.108204E-05
940	948.5	-0.0005720482	2.761109E-05
940	948.75	-0.0006384523	2.531596E-05
940	949	-0.0007010672	2.79432E-05
940	949.25	-0.0007266459	2.644048E-05
940	949.5	-0.0008017542	2.209623E-05
940	949.75	-0.0008832273	2.63453E-05
940	950	-0.0008778392	2.153103E-05
940	950.25	-0.0008740499	2.753932E-05
940	950.5	-0.0009001911	1.945416E-05
940	950.75	-0.000933882	2.571081E-05
940	951	-0.000976454	2.031211E-05
940	951.25	-0.0009883257	1.899047E-05
940	951.5	-0.00100671	2.463856E-05
940	951.75	-0.0009948093	2.668955E-05
940	952	-0.001032348	2.868013E-05
940	952.25	-0.001042829	1.856586E-05
940	952.5	-0.001053339	2.950531E-05
940	952.75	-0.001060799	2.580377E-05
940	953	-0.001021158	2.264319E-05
940	953.25	-0.001066542	2.733763E-05
940	953.5	-0.001072612	2.547667E-05
940	953.75	-0.001056655	2.699806E-05
940	954	-0.001097865	2.280816E-05
940	954.25	-0.001076016	2.430191E-05
940	954.5	-0.001101388	2.339797E-05
940	954.75	-0.001100855	2.547371E-05
940	955	-0.001099434	2.607986E-05
940	955.25	-0.001096296	1.728121E-05
940	955.5	-0.001063079	2.227654E-05
940	955.75	-0.001055115	2.349615E-05
940	956	-0.001058668	2.283685E-05
940	956.25	-0.001085016	1.801743E-05
940	956.5	-0.001107516	2.267141E-05
940	956.75	-0.001066454	2.169424E-05
940	957	-0.001095497	2.339359E-05
940	957.25	-0.001110299	1.467401E-05
940	957.5	-0.001073382	2.922882E-05
940	957.75	-0.001089931	2.01362E-05
940	958	-0.001091263	2.161022E-05
940	958.25	-0.001077526	2.282559E-05
940	958.5	-0.001096089	3.042442E-05
940	958.75	-0.00109526	3.015153E-05
940	959	-0.001048602	1.94507E-05
940	959.25	-0.00105852	2.175684E-05
940	959.5	-0.001081493	2.666207E-05
940	959.75	-0.001103904	2.410335E-05
940	960	-0.001033178	2.456964E-05
940	960.25	-0.001101477	2.266863E-05
940	960.5	-0.00107051	1.787047E-05
940	960.75	-0.001097747	3.010031E-05
940	961	-0.001056447	2.037081E-05
940	961.25	-0.00105177	3.124694E-05
940	961.5	-0.001120128	2.63056E-05
940	961.75	-0.001090168	2.697442E-05
940	962	-0.001119358	1.959242E-05
940	962.25	-0.001098782	2.958841E-05
940	962.5	-0.001118618	2.456185E-05
940	962.75	-0.001062427	2.634047E-05
940	963	-0.001089605	2.567303E-05
940	963.25	-0.00108244	2.352102E-05
940	963.5	-0.001108641	2.603725E-05
940	963.75	-0.001137239	1.921497E-05
940	964	-0.001105503	2.267597E-05
940	964.25	-0.001100677	2.270418E-05
940	964.5	-0.001079865	2.806718E-05
940	964.75	-0.001082884	2.392922E-05
940	965	-0.001061213	2.526988E-05
940	965.25	-0.001070421	2.214178E-05
940	965.5	-0.001122288	2.961598E-05
940	965.75	-0.001121341	2.373824E-05
940	966	-0.001039276	2.227777E-05
940	966.25	-0.001069532	2.072267E-05
940	966.5	-0.001087117	2.372518E-05
940	966.75	-0.001120453	2.763081E-05
940	967	-0.001090048	1.926583E-05
940	967.25	-0.001077703	2.040344E-05
940	967.5	-0.001091321	2.325565E-05
940	967.75	-0.001116959	2.408639E-05
940	968	-0.001069325	2.971114E-05
940	968.25	-0.001077762	2.627044E-05
940	968.5	-0.001058607	2.610663E-05
940	968.75	-0.0010682	2.580067E-05
940	969	-0.001082055	2.011123E-05
940	969.25	-0.001072818	2.518164E-05
940	969.5	-0.00109138	2.077164E-05
940	969.75	-0.001069295	2.03153E-05
